* Sea-Bird SBE19plus Data File:
* FileName = C:\Users\User\Desktop\WorkingFolder\HEX\MON10_13Aug2015053.hex
* Software Version 1.59
* Temperature SN =  7506
* Conductivity SN =  7506
* System UpLoad Time = Aug 13 2015 16:22:55
* ds
* SBE 19plus V 2.5.2  SERIAL NO. 7506    13 Aug 2015 16:14:43
* vbatt = 11.6, vlith =  8.6, ioper =  61.0 ma, ipump =  64.5 ma,
* iext01 =   5.6 ma, iext2345 =   3.3 ma, iserial =  27.8 ma
* status = not logging
* number of scans to average = 1
* samples = 195650, free = 2937594, casts = 68
* mode = profile, minimum cond freq = 0, pump delay = 75 sec
* autorun = no, ignore magnetic switch = no
* battery type = alkaline, battery cutoff =  7.5 volts
* pressure sensor = strain gauge, range = 508.0
* SBE 38 = no, WETLABS = yes, OPTODE = no, SBE63 = no, Gas Tension Device = no
* Ext Volt 0 = yes, Ext Volt 1 = no
* Ext Volt 2 = yes, Ext Volt 3 = no
* Ext Volt 4 = no, Ext Volt 5 = no
* echo characters = yes
* output format = raw HEX

* S>
*
* SBE 19plus V 2.5.2  SERIAL NO. 7506    13 Aug 2015 16:15:02
* temperature:  26-Jun-14
*     TA0 = 1.261374e-03
*     TA1 = 2.712933e-04
*     TA2 = -8.461344e-07
*     TA3 = 1.733276e-07
*     TOFFSET = 0.000000e+00
* conductivity:  26-Jun-14
*     G = -9.792998e-01
*     H = 1.471061e-01
*     I = -2.352037e-04
*     J = 3.954140e-05
*     CPCOR = -9.570000e-08
*     CTCOR = 3.250000e-06
*     CSLOPE = 1.000000e+00
* pressure S/N = 4157547, range = 508 psia:  20-Jun-14
*     PA0 = 1.321742e-01
*     PA1 = 1.547028e-03
*     PA2 = 7.529256e-12
*     PTCA0 = 5.274062e+05
*     PTCA1 = 6.817428e+00
*     PTCA2 = -1.369143e-01
*     PTCB0 = 2.521837e+01
*     PTCB1 = -3.250000e-04
*     PTCB2 = 0.000000e+00
*     PTEMPA0 = -7.054527e+01
*     PTEMPA1 = 5.028533e+01
*     PTEMPA2 = -2.206998e-01
*     POFFSET = 0.000000e+00
* volt 0: offset = -4.618527e-02, slope = 1.250448e+00
* volt 1: offset = -4.556105e-02, slope = 1.250200e+00
* volt 2: offset = -4.548842e-02, slope = 1.249971e+00
* volt 3: offset = -4.587053e-02, slope = 1.250295e+00
* volt 4: offset = -4.544105e-02, slope = 1.251388e+00
* volt 5: offset = -4.670421e-02, slope = 1.249342e+00
*     EXTFREQSF = 9.999918e-01
* dh
* cast  53 12 Aug 2015 10:36:03 samples 155285 to 156602, avg = 1, stop = mag switch

* S>
# nquan = 9
# nvalues = 1318                                  
# units = specified
# name 0 = scan: Scan Count
# name 1 = prdM: Pressure, Strain Gauge [db]
# name 2 = tv290C: Temperature [ITS-90, deg C]
# name 3 = c0uS/cm: Conductivity [uS/cm]
# name 4 = turbWETntu0: Turbidity, WET Labs ECO [NTU]
# name 5 = flECO-AFL: Fluorescence, WET Labs ECO-AFL/FL [mg/m^3]
# name 6 = sbeox0Mg/L: Oxygen, SBE 43 [mg/l]
# name 7 = par: PAR/Irradiance, Biospherical/Licor
# name 8 = flag:  0.000e+00
# span 0 =          1,       1318                 
# span 1 =     -0.655,     24.607                 
# span 2 =    12.5309,    19.6638                 
# span 3 =   0.779189,  84.395878                 
# span 4 =   -22.4555,    35.3080                 
# span 5 =    -6.7875,     8.4527                 
# span 6 =     5.5457,    10.3095                 
# span 7 = 1.0000e-12, 4.0978e+03                 
# span 8 = 0.0000e+00, 0.0000e+00                 
# interval = seconds: 0.25
# start_time = Aug 12 2015 10:36:03 [Instrument's time stamp, header]
# bad_flag = -9.990e-29
# <Sensors count="8" >
#   <sensor Channel="1" >
#     <!-- Count, Temperature -->
#     <TemperatureSensor SensorID="58" >
#       <SerialNumber>7506</SerialNumber>
#       <CalibrationDate>26-Jun-14</CalibrationDate>
#       <A0>1.26137383e-003</A0>
#       <A1>2.71293306e-004</A1>
#       <A2>-8.46134365e-007</A2>
#       <A3>1.73327598e-007</A3>
#       <Slope>1.00000000</Slope>
#       <Offset>0.0000</Offset>
#     </TemperatureSensor>
#   </sensor>
#   <sensor Channel="2" >
#     <!-- Frequency 0, Conductivity -->
#     <ConductivitySensor SensorID="3" >
#       <SerialNumber>7506</SerialNumber>
#       <CalibrationDate>26-Jun-14</CalibrationDate>
#       <UseG_J>1</UseG_J>
#       <!-- Cell const and series R are applicable only for wide range sensors. -->
#       <SeriesR>0.0000</SeriesR>
#       <CellConst>2000.0000</CellConst>
#       <ConductivityType>0</ConductivityType>
#       <Coefficients equation="0" >
#         <A>0.00000000e+000</A>
#         <B>0.00000000e+000</B>
#         <C>0.00000000e+000</C>
#         <D>0.00000000e+000</D>
#         <M>0.0</M>
#         <CPcor>-9.57000000e-008</CPcor>
#       </Coefficients>
#       <Coefficients equation="1" >
#         <G>-9.79299780e-001</G>
#         <H>1.47106091e-001</H>
#         <I>-2.35203711e-004</I>
#         <J>3.95414013e-005</J>
#         <CPcor>-9.57000000e-008</CPcor>
#         <CTcor>3.2500e-006</CTcor>
#         <!-- WBOTC not applicable unless ConductivityType = 1. -->
#         <WBOTC>0.00000000e+000</WBOTC>
#       </Coefficients>
#       <Slope>1.00000000</Slope>
#       <Offset>0.00000</Offset>
#     </ConductivitySensor>
#   </sensor>
#   <sensor Channel="3" >
#     <!-- Count, Pressure, Strain Gauge -->
#     <PressureSensor SensorID="46" >
#       <SerialNumber>7506</SerialNumber>
#       <CalibrationDate>20-Jun-14</CalibrationDate>
#       <PA0>1.32174204e-001</PA0>
#       <PA1>1.54702776e-003</PA1>
#       <PA2>7.52925639e-012</PA2>
#       <PTEMPA0>-7.05452734e+001</PTEMPA0>
#       <PTEMPA1>5.02853344e+001</PTEMPA1>
#       <PTEMPA2>-2.20699827e-001</PTEMPA2>
#       <PTCA0>5.27406123e+005</PTCA0>
#       <PTCA1>6.81742828e+000</PTCA1>
#       <PTCA2>-1.36914336e-001</PTCA2>
#       <PTCB0>2.52183750e+001</PTCB0>
#       <PTCB1>-3.25000000e-004</PTCB1>
#       <PTCB2>0.00000000e+000</PTCB2>
#       <Offset>0.000000</Offset>
#     </PressureSensor>
#   </sensor>
#   <sensor Channel="4" >
#     <!-- A/D voltage 0, Oxygen, SBE 43 -->
#     <OxygenSensor SensorID="38" >
#       <SerialNumber>2911</SerialNumber>
#       <CalibrationDate>27-Jun-14</CalibrationDate>
#       <Use2007Equation>1</Use2007Equation>
#       <CalibrationCoefficients equation="0" >
#         <!-- Coefficients for Owens-Millard equation. -->
#         <Boc>0.0000</Boc>
#         <Soc>0.0000e+000</Soc>
#         <offset>0.0000</offset>
#         <Pcor>0.00e+000</Pcor>
#         <Tcor>0.0000</Tcor>
#         <Tau>0.0</Tau>
#       </CalibrationCoefficients>
#       <CalibrationCoefficients equation="1" >
#         <!-- Coefficients for Sea-Bird equation - SBE calibration in 2007 and later. -->
#         <Soc>3.5354e-001</Soc>
#         <offset>-0.5145</offset>
#         <A>-2.1770e-003</A>
#         <B> 1.4331e-004</B>
#         <C>-2.5457e-006</C>
#         <D0> 2.5826e+000</D0>
#         <D1> 1.92634e-004</D1>
#         <D2>-4.64803e-002</D2>
#         <E> 3.6000e-002</E>
#         <Tau20> 1.9400</Tau20>
#         <H1>-3.3000e-002</H1>
#         <H2> 5.0000e+003</H2>
#         <H3> 1.4500e+003</H3>
#       </CalibrationCoefficients>
#     </OxygenSensor>
#   </sensor>
#   <sensor Channel="5" >
#     <!-- A/D voltage 1, PAR/Irradiance, Biospherical/Licor -->
#     <PAR_BiosphericalLicorChelseaSensor SensorID="42" >
#       <SerialNumber>70565</SerialNumber>
#       <CalibrationDate>06/23/14</CalibrationDate>
#       <M>1.00000000</M>
#       <B>0.00000000</B>
#       <CalibrationConstant>12077000000.00000000</CalibrationConstant>
#       <Multiplier>1.00000000</Multiplier>
#       <Offset>-0.08492398</Offset>
#     </PAR_BiosphericalLicorChelseaSensor>
#   </sensor>
#   <sensor Channel="6" >
#     <!-- Serial RS-232, Fluorometer, WET Labs ECO-AFL/FL -->
#     <FluoroWetlabECO_AFL_FL_Sensor SensorID="20" >
#       <SerialNumber>FLNTURT-3481</SerialNumber>
#       <CalibrationDate>5-Feb-14</CalibrationDate>
#       <ScaleFactor>1.81000000e-002</ScaleFactor>
#       <!-- Dark output -->
#       <Vblank>48.0000</Vblank>
#     </FluoroWetlabECO_AFL_FL_Sensor>
#   </sensor>
#   <sensor Channel="7" >
#     <!-- Serial RS-232, Turbidity Meter, WET Labs, ECO-NTU -->
#     <TurbidityMeter SensorID="67" >
#       <SerialNumber>FLNTURT-3481</SerialNumber>
#       <CalibrationDate>5-Feb-14</CalibrationDate>
#       <ScaleFactor>0.048500</ScaleFactor>
#       <!-- Dark output -->
#       <DarkVoltage>50.000000</DarkVoltage>
#     </TurbidityMeter>
#   </sensor>
#   <sensor Channel="8" >
#     <!-- Serial RS-232, Free -->
#   </sensor>
# </Sensors>
# datcnv_date = Aug 13 2015 16:50:13, 7.23.2 [datcnv_vars = 8]
# datcnv_in = C:\Users\User\Desktop\WorkingFolder\HEX\MON10_13Aug2015053.hex C:\Users\User\Desktop\WorkingFolder\19-7506-withPAR15.xmlcon
# datcnv_skipover = 0
# datcnv_ox_hysteresis_correction = yes
# datcnv_ox_tau_correction = yes
# file_type = ascii
*END*
          1     -0.650    16.5642   0.927237     0.6305     0.0181     9.1091 2.8350e+03  0.000e+00
          2     -0.650    16.5658   0.897628     0.7275     0.0362     9.1025 2.8221e+03  0.000e+00
          3     -0.650    16.5683   0.927237     0.7275     0.0181     9.1020 2.8216e+03  0.000e+00
          4     -0.650    16.5721   0.956847     0.7275     0.0362     9.1022 2.7876e+03  0.000e+00
          5     -0.648    16.5749   0.956847     0.5820     0.0362     9.0977 2.7890e+03  0.000e+00
          6     -0.650    16.5762   0.956847     0.5820     0.0724     9.1001 2.8400e+03  0.000e+00
          7     -0.650    16.5772   0.897628     0.6790    -0.0543     9.0992 2.8665e+03  0.000e+00
          8     -0.650    16.5783   0.897628     0.7275     0.0543     9.1022 2.8675e+03  0.000e+00
          9     -0.649    16.5796   0.927237     0.5335     0.0543     9.0998 2.8630e+03  0.000e+00
         10     -0.652    16.5807   0.956847     0.5335     0.0181     9.1028 2.8630e+03  0.000e+00
         11     -0.650    16.5817   0.956847     0.4850     0.0362     9.1008 2.8630e+03  0.000e+00
         12     -0.652    16.5825   0.927237     0.5820     0.0362     9.1025 2.8620e+03  0.000e+00
         13     -0.651    16.5832   0.897628     0.5820     0.0181     9.1028 2.8440e+03  0.000e+00
         14     -0.650    16.5840   0.897628     0.6305     0.0181     9.1035 2.8415e+03  0.000e+00
         15     -0.651    16.5847   0.897628     0.6790     0.0905     9.0993 2.8425e+03  0.000e+00
         16     -0.650    16.5855   0.956847     0.6790    -0.0362     9.1030 2.8405e+03  0.000e+00
         17     -0.651    16.5864   0.897628     0.4850     0.0362     9.1049 2.8440e+03  0.000e+00
         18     -0.649    16.5872   0.927237     0.6790     0.0543     9.1037 2.8460e+03  0.000e+00
         19     -0.649    16.5879   0.897628     0.6305     0.0362     9.1046 2.5362e+03  0.000e+00
         20     -0.652    16.5889   0.956847     0.6790     0.0362     9.1038 2.6781e+03  0.000e+00
         21     -0.651    16.5902   0.927237     0.5820    -0.0181     9.1013 2.8171e+03  0.000e+00
         22     -0.649    16.5911   0.897628     0.5335     0.0362     9.1006 2.7773e+03  0.000e+00
         23     -0.650    16.5920   0.956847     0.5820     0.0181     9.1005 2.8245e+03  0.000e+00
         24     -0.650    16.5929   0.897628     0.7275     0.0543     9.0999 2.8255e+03  0.000e+00
         25     -0.650    16.5937   0.897628     0.7275     0.0724     9.0986 2.8201e+03  0.000e+00
         26     -0.652    16.5945   0.897628     0.6305     0.0543     9.1016 2.8405e+03  0.000e+00
         27     -0.652    16.5955   0.897628     0.7275     0.0362     9.0998 2.8510e+03  0.000e+00
         28     -0.652    16.5966   0.897628     0.6790     0.0181     9.1009 2.8410e+03  0.000e+00
         29     -0.650    16.5975   0.838408     0.5820    -0.0181     9.1019 2.8400e+03  0.000e+00
         30     -0.651    16.5984   0.838408     0.6790     0.0543     9.1014 2.8315e+03  0.000e+00
         31     -0.651    16.5995   0.838408     0.5335     0.0362     9.0989 2.8320e+03  0.000e+00
         32     -0.651    16.6005   0.897628     0.6790     0.0181     9.0943 2.8535e+03  0.000e+00
         33     -0.651    16.6013   0.897628     0.5820     0.0181     9.0968 2.8560e+03  0.000e+00
         34     -0.652    16.6024   0.897628     0.4365     0.0362     9.0925 2.8610e+03  0.000e+00
         35     -0.651    16.6034   0.897628     0.7275     0.0000     9.0960 2.8756e+03  0.000e+00
         36     -0.650    16.6043   0.838408     0.5820     0.0362     9.0938 2.8990e+03  0.000e+00
         37     -0.651    16.6052   0.897628     0.6305     0.0000     9.0963 2.8898e+03  0.000e+00
         38     -0.650    16.6054   0.897628     0.6305     0.0362     9.0932 2.9343e+03  0.000e+00
         39     -0.653    16.6060   0.897628     0.5820     0.0724     9.0963 2.9534e+03  0.000e+00
         40     -0.653    16.6067   0.838408     0.6305     0.0181     9.0956 2.9847e+03  0.000e+00
         41     -0.652    16.6071   0.897628     0.4850     0.0181     9.0958 3.0270e+03  0.000e+00
         42     -0.652    16.6078   0.897628     0.7760     0.0362     9.0962 3.0419e+03  0.000e+00
         43     -0.651    16.6085   0.897628     0.6305     0.0000     9.0983 3.0704e+03  0.000e+00
         44     -0.651    16.6090   0.897628     0.6305     0.0362     9.0982 3.0904e+03  0.000e+00
         45     -0.649    16.6095   0.897628     0.5335     0.0181     9.0960 3.1073e+03  0.000e+00
         46     -0.651    16.6100   0.838408     0.5335     0.0362     9.0992 3.1286e+03  0.000e+00
         47     -0.652    16.6104   0.897628     0.5820    -0.0181     9.0976 3.1601e+03  0.000e+00
         48     -0.651    16.6103   0.838408     0.6305     0.0000     9.0997 3.1975e+03  0.000e+00
         49     -0.651    16.6097   0.897628     0.6305     0.0362     9.0952 3.2331e+03  0.000e+00
         50     -0.650    16.6091   0.897628     0.5335     0.0362     9.0984 3.2605e+03  0.000e+00
         51     -0.652    16.6088   0.838408     0.6790     0.0543     9.0976 3.2777e+03  0.000e+00
         52     -0.651    16.6083   0.897628     0.5335     0.0724     9.0986 3.3014e+03  0.000e+00
         53     -0.651    16.6079   0.897628     0.5820     0.0362     9.0975 3.3235e+03  0.000e+00
         54     -0.652    16.6069   0.897628     0.5820     0.0362     9.0939 3.3487e+03  0.000e+00
         55     -0.652    16.6061   0.838408     0.6305     0.0000     9.0954 3.3789e+03  0.000e+00
         56     -0.651    16.6053   0.897628     0.6790     0.0543     9.0937 3.4021e+03  0.000e+00
         57     -0.651    16.6046   0.838408     0.5820     0.0362     9.0942 3.4303e+03  0.000e+00
         58     -0.652    16.6039   0.838408     0.5820     0.0362     9.0930 3.4600e+03  0.000e+00
         59     -0.651    16.6034   0.779189     0.6305     0.0181     9.0963 3.4789e+03  0.000e+00
         60     -0.651    16.6026   0.897628     0.6305     0.0362     9.0948 3.4874e+03  0.000e+00
         61     -0.654    16.6022   0.897628     0.6790     0.0181     9.0963 3.5126e+03  0.000e+00
         62     -0.652    16.6017   0.838408     0.6790     0.0362     9.1000 3.5157e+03  0.000e+00
         63     -0.652    16.6013   0.897628     0.7275     0.0362     9.0975 3.5324e+03  0.000e+00
         64     -0.652    16.6008   0.838408     0.6790     0.0362     9.0974 3.5393e+03  0.000e+00
         65     -0.649    16.6001   0.838408     0.6305     0.0362     9.0982 3.5630e+03  0.000e+00
         66     -0.652    16.5998   0.838408     0.5820     0.0181     9.1009 3.5856e+03  0.000e+00
         67     -0.650    16.5994   0.838408     0.6790     0.0543     9.0960 3.6045e+03  0.000e+00
         68     -0.654    16.5992   0.838408     0.6305     0.0362     9.0970 3.6160e+03  0.000e+00
         69     -0.650    16.5991   0.897628     0.7275     0.0543     9.0961 3.6153e+03  0.000e+00
         70     -0.652    16.5988   0.897628     0.5820     0.0362     9.0972 3.6389e+03  0.000e+00
         71     -0.652    16.5984   0.779189     0.5820     0.0362     9.0978 3.6588e+03  0.000e+00
         72     -0.652    16.5977   0.838408     0.5820     0.0543     9.0986 3.6833e+03  0.000e+00
         73     -0.652    16.5975   0.838408     0.6305     0.0543     9.0980 3.7119e+03  0.000e+00
         74     -0.650    16.5975   0.838408     0.6790     0.0543     9.0974 3.7230e+03  0.000e+00
         75     -0.650    16.5975   0.838408     0.7275     0.0181     9.1012 3.7380e+03  0.000e+00
         76     -0.652    16.5973   0.838408     0.6790     0.0181     9.0977 3.7512e+03  0.000e+00
         77     -0.651    16.5973   0.897628     0.5820     0.0543     9.0963 3.7743e+03  0.000e+00
         78     -0.654    16.5975   0.838408     0.7275     0.0362     9.0969 3.7909e+03  0.000e+00
         79     -0.651    16.5972   0.838408     0.7275     0.0181     9.0952 3.7956e+03  0.000e+00
         80     -0.651    16.5970   0.838408     0.6305     0.0362     9.0930 3.8009e+03  0.000e+00
         81     -0.654    16.5969   0.838408     0.5820     0.0181     9.0971 3.8197e+03  0.000e+00
         82     -0.652    16.5966   0.838408     0.5820     0.0181     9.0961 3.8419e+03  0.000e+00
         83     -0.655    16.5966   0.779189     0.5820     0.0362     9.0928 3.8372e+03  0.000e+00
         84     -0.652    16.5968   0.838408     0.4850     0.0000     9.0961 3.7909e+03  0.000e+00
         85     -0.650    16.5967   0.838408     0.5820     0.0362     9.0968 3.7598e+03  0.000e+00
         86     -0.651    16.5966   0.838408     0.6790     0.0181     9.0953 3.7348e+03  0.000e+00
         87     -0.652    16.5964   0.838408     0.5335     0.0181     9.1013 3.7289e+03  0.000e+00
         88     -0.652    16.5963   0.838408     0.5820     0.0362     9.1005 3.7518e+03  0.000e+00
         89     -0.651    16.5964   0.838408     0.7275     0.0543     9.0958 3.7249e+03  0.000e+00
         90     -0.654    16.5965   0.897628     0.6790     0.0362     9.0958 3.7145e+03  0.000e+00
         91     -0.650    16.5964   0.897628     0.6305     0.0181     9.0954 3.7584e+03  0.000e+00
         92     -0.654    16.5967   0.838408     0.6790     0.0362     9.0964 3.7710e+03  0.000e+00
         93     -0.652    16.5973   0.838408     0.6790    -0.0181     9.0970 3.7499e+03  0.000e+00
         94     -0.651    16.5978   0.838408     0.6790     0.0362     9.0958 3.7190e+03  0.000e+00
         95     -0.652    16.5978   0.838408     0.6790     0.0362     9.0934 3.6995e+03  0.000e+00
         96     -0.652    16.5979   0.897628     0.7275     0.0362     9.0958 3.6995e+03  0.000e+00
         97     -0.652    16.5978   0.838408     0.6790     0.0362     9.0949 3.7060e+03  0.000e+00
         98     -0.650    16.5978   0.897628     0.5820     0.0543     9.0959 3.7053e+03  0.000e+00
         99     -0.652    16.5978   0.838408     0.5820     0.0362     9.0938 3.7164e+03  0.000e+00
        100     -0.650    16.5977   0.838408     0.6305     0.0181     9.0957 3.7190e+03  0.000e+00
        101     -0.652    16.5977   0.838408     0.6305     0.0362     9.0882 3.6729e+03  0.000e+00
        102     -0.654    16.5977   0.838408     0.5820     0.0181     9.0947 3.6287e+03  0.000e+00
        103     -0.652    16.5979   0.897628     0.5335     0.0362     9.0938 3.5951e+03  0.000e+00
        104     -0.650    16.5980   0.838408     0.6305     0.0543     9.0953 3.5480e+03  0.000e+00
        105     -0.651    16.5981   0.838408     0.6790    -0.0362     9.0988 3.3165e+03  0.000e+00
        106     -0.650    16.5982   0.838408     0.5820     0.0181     9.0958 3.5517e+03  0.000e+00
        107     -0.651    16.5981   0.838408     0.7760     0.0362     9.0966 2.5259e+03  0.000e+00
        108     -0.654    16.5983   0.838408     0.7760     0.0000     9.0955 1.1062e+03  0.000e+00
        109     -0.652    16.5983   0.838408     0.6790    -0.0362     9.0989 9.1514e+02  0.000e+00
        110     -0.651    16.5984   0.779189     0.0000     0.0362     9.0909 9.2712e+02  0.000e+00
        111     -0.651    16.5999   0.838408     0.0000     0.0362     9.0933 1.5259e+03  0.000e+00
        112     -0.650    16.6043   0.897628     0.0000     0.0362     9.0911 2.5348e+03  0.000e+00
        113     -0.650    16.6091   0.838408     0.0000     0.0362     9.0924 3.9237e+03  0.000e+00
        114     -0.652    16.6142   0.838408     0.0000     0.0362     9.0918 3.4509e+03  0.000e+00
        115     -0.651    16.6193   0.838408     0.0000     0.0362     9.0933 3.7060e+03  0.000e+00
        116     -0.651    16.6237   0.897628     0.0000     0.0362     9.0893 3.8372e+03  0.000e+00
        117     -0.651    16.6269   0.838408     0.0000     0.0362     9.0858 4.0978e+03  0.000e+00
        118     -0.652    16.6283   0.897628     0.0000     0.0362     9.0863 3.8860e+03  0.000e+00
        119     -0.651    16.6292   0.897628     0.0000     0.0362     9.0863 2.8435e+03  0.000e+00
        120     -0.609    16.6350  22.257843     0.0000     0.0362     9.0893 3.9473e+03  0.000e+00
        121     -0.483    17.0711  81.512391    16.0535     2.6788     9.0038 3.9905e+03  0.000e+00
        122     -0.374    17.8762  75.388478     8.0995    -5.9549     8.8647 3.9389e+03  0.000e+00
        123     -0.264    18.5043  83.771717     0.7275    -0.8507     8.7517 3.8812e+03  0.000e+00
        124     -0.192    18.9367  83.860804    -1.0670     0.0362     8.6807 3.8588e+03  0.000e+00
        125     -0.142    19.1900  83.890470    -0.4850     0.4525     8.6571 2.7251e+03  0.000e+00
        126     -0.073    19.3276  83.741760    -0.7275     0.0724     8.6886 1.8728e+03  0.000e+00
        127     -0.039    19.4055  83.622802     1.3095     0.0905     8.7484 1.7664e+03  0.000e+00
        128     -0.032    19.4488  83.533587     0.6790     0.2896     8.8262 1.5407e+03  0.000e+00
        129     -0.022    19.4740  83.533580     1.0185     0.0905     8.9105 1.6321e+03  0.000e+00
        130     -0.007    19.4889  83.414640     1.0185     0.1991     8.9879 1.9839e+03  0.000e+00
        131     -0.017    19.4940  83.444372     0.9215     0.2353     9.0509 1.4149e+03  0.000e+00
        132     -0.053    19.4877  83.355172     1.4065     0.1991     9.0911 1.8097e+03  0.000e+00
        133     -0.078    19.4644  83.444380     2.1340     0.6697     9.1010 1.7948e+03  0.000e+00
        134     -0.083    19.4692  83.622784     1.3095     0.1267     9.0679 1.8486e+03  0.000e+00
        135     -0.086    19.4866  83.533576     0.3395     0.0362     9.0135 1.7423e+03  0.000e+00
        136     -0.102    19.4956  83.295702     0.3880     0.4344     8.9567 1.8037e+03  0.000e+00
        137     -0.133    19.5033  83.355167     0.4365     0.2715     8.9007 3.7203e+03  0.000e+00
        138     -0.150    19.5110  83.652506     1.3095     0.3801     8.8473 3.7158e+03  0.000e+00
        139     -0.115    19.5262  83.741706     0.8730     0.0000     8.8303 2.5429e+03  0.000e+00
        140     -0.067    19.5359  83.622766     0.3880     0.0724     8.8224 1.7371e+03  0.000e+00
        141     -0.028    19.5370  83.533563     0.1455     0.0362     8.7358 1.9299e+03  0.000e+00
        142      0.021    19.5399  83.593031     0.8245     0.0543     8.5366 1.6931e+03  0.000e+00
        143      0.052    19.5478  83.384890     1.2610     0.2353     8.2405 1.7605e+03  0.000e+00
        144      0.067    19.5485  83.414624     0.7275     0.2715     7.8793 1.6517e+03  0.000e+00
        145      0.073    19.5536  83.533559     0.7275     0.1991     7.4867 1.6914e+03  0.000e+00
        146      0.073    19.5624  83.652494     0.8245     0.2534     7.0910 1.7807e+03  0.000e+00
        147      0.069    19.5707  83.622758     0.9215     0.1991     6.7371 1.6555e+03  0.000e+00
        148      0.065    19.5730  83.622757     0.6790     0.2715     6.4664 1.8702e+03  0.000e+00
        149      0.059    19.5735  83.652491     0.7760     0.1991     6.3078 1.6558e+03  0.000e+00
        150      0.059    19.5761  83.593022     0.6790     0.1991     6.2432 1.8142e+03  0.000e+00
        151      0.063    19.5735  83.503820     0.8730     0.2172     6.2778 1.9452e+03  0.000e+00
        152      0.060    19.5578  83.414622     0.7760     0.1991     6.3963 1.3286e+03  0.000e+00
        153      0.053    19.5509  83.533560     0.7760     0.2172     6.5678 1.3934e+03  0.000e+00
        154      0.050    19.5568  83.533558     0.8245     0.1991     6.7610 2.7827e+03  0.000e+00
        155      0.052    19.5662  83.533556     0.8730     0.1810     6.9412 1.5423e+03  0.000e+00
        156      0.051    19.5690  83.503821     0.7760     0.2172     7.0846 1.4547e+03  0.000e+00
        157      0.046    19.5646  83.474088     0.8245     0.1810     7.1620 1.8698e+03  0.000e+00
        158      0.042    19.5605  83.533557     0.8730     0.1991     7.1566 1.1882e+03  0.000e+00
        159      0.043    19.5655  83.593024     0.8730     0.2715     7.0786 1.8652e+03  0.000e+00
        160      0.042    19.5734  83.593022     0.8245     0.2353     6.9726 1.7999e+03  0.000e+00
        161      0.046    19.5765  83.593021     0.8245     0.1991     6.8703 1.9439e+03  0.000e+00
        162      0.042    19.5757  83.593022     0.7760     0.1810     6.7858 1.6508e+03  0.000e+00
        163      0.035    19.5726  83.622757     0.8245     0.2172     6.7120 1.7558e+03  0.000e+00
        164      0.027    19.5665  83.593024     0.6305     0.2172     6.6519 1.3976e+03  0.000e+00
        165      0.023    19.5673  83.593024     0.8245     0.2172     6.6182 1.4013e+03  0.000e+00
        166      0.025    19.5738  83.682225     0.9215     0.0905     6.6448 1.3927e+03  0.000e+00
        167      0.030    19.5765  83.593021     0.6790     0.1991     6.7376 2.0679e+03  0.000e+00
        168      0.031    19.5712  83.474086     0.8245     0.1629     6.8548 1.4442e+03  0.000e+00
        169      0.031    19.5642  83.444354     0.7760     0.1991     6.9432 1.7773e+03  0.000e+00
        170      0.029    19.5637  83.533556     0.8730     0.2715     6.9888 1.8110e+03  0.000e+00
        171      0.028    19.5690  83.533555     0.7275     0.2172     6.9955 1.3888e+03  0.000e+00
        172      0.027    19.5772  83.593021     0.9215     0.1991     6.9860 1.7701e+03  0.000e+00
        173      0.021    19.5852  83.593019     0.8245     0.1991     6.9571 1.4442e+03  0.000e+00
        174      0.014    19.5914  83.593017     0.8245     0.2172     6.9148 1.6572e+03  0.000e+00
        175      0.018    19.5960  83.652485     0.8245     0.2534     6.8671 1.8525e+03  0.000e+00
        176      0.023    19.5975  83.622750     0.7275     0.1448     6.8273 2.0251e+03  0.000e+00
        177      0.028    19.5958  83.652485     0.8245     0.1810     6.8093 1.6370e+03  0.000e+00
        178      0.024    19.5846  83.414614     0.8245     0.1991     6.8027 1.6370e+03  0.000e+00
        179      0.015    19.5666  83.295683     0.7760     0.1629     6.8203 1.8154e+03  0.000e+00
        180      0.010    19.5640  83.444354     0.8245     0.1991     6.8368 2.0141e+03  0.000e+00
        181      0.011    19.5637  83.593025     0.8245     0.1991     6.8881 1.6307e+03  0.000e+00
        182      0.019    19.5709  83.652491     0.8245     0.3801     6.9574 1.6639e+03  0.000e+00
        183      0.023    19.5794  83.593020     0.8245     0.1629     7.0514 1.3713e+03  0.000e+00
        184      0.024    19.5740  83.474085     0.7760     0.2172     7.1317 1.8593e+03  0.000e+00
        185      0.015    19.5614  83.533557     0.8730     0.1991     7.1672 1.5211e+03  0.000e+00
        186      0.010    19.5631  83.593025     0.8245     0.1810     7.1349 1.5412e+03  0.000e+00
        187      0.010    19.5742  83.652490     0.8730     0.2534     7.0466 1.4258e+03  0.000e+00
        188      0.014    19.5838  83.622754     0.8245     0.1629     6.9426 1.6511e+03  0.000e+00
        189      0.020    19.5833  83.533551     0.7275     0.2172     6.8336 1.9593e+03  0.000e+00
        190      0.018    19.5655  83.384885     0.6790     0.1448     6.7356 1.7295e+03  0.000e+00
        191      0.012    19.5565  83.533558     0.8245     0.1991     6.6345 1.4526e+03  0.000e+00
        192      0.008    19.5590  83.593026     0.8245     0.1991     6.5382 1.5543e+03  0.000e+00
        193      0.010    19.5640  83.652493     0.8245     0.1810     6.4673 1.1206e+03  0.000e+00
        194      0.014    19.5727  83.533554     0.9215     0.1810     6.4485 2.1702e+03  0.000e+00
        195      0.015    19.5721  83.384883     0.5335     0.1991     6.4703 1.2020e+03  0.000e+00
        196      0.012    19.5587  83.355153     0.5820     0.2172     6.5088 1.8777e+03  0.000e+00
        197      0.009    19.5584  83.414621     0.9700     0.1267     6.5315 1.6651e+03  0.000e+00
        198      0.008    19.5613  83.533557     0.8245     0.3801     6.5261 1.7989e+03  0.000e+00
        199      0.013    19.5654  83.593024     0.7275     0.1991     6.4994 1.3453e+03  0.000e+00
        200      0.015    19.5674  83.444353     0.8245     0.2172     6.4903 1.8360e+03  0.000e+00
        201      0.021    19.5563  83.414622     0.8730     0.2172     6.4683 1.4463e+03  0.000e+00
        202      0.019    19.5569  83.355154     0.8245     0.2353     6.4332 1.6760e+03  0.000e+00
        203      0.024    19.5592  83.444355     0.8730     0.2353     6.3896 1.4149e+03  0.000e+00
        204      0.032    19.5614  83.533557     0.8245     0.2353     6.3353 1.2317e+03  0.000e+00
        205      0.038    19.5631  83.384886     0.9215     0.1991     6.2854 1.3834e+03  0.000e+00
        206      0.038    19.5606  83.414621     0.7275     0.1991     6.2519 1.3209e+03  0.000e+00
        207      0.038    19.5553  83.295686     0.7760     0.2172     6.2278 1.5120e+03  0.000e+00
        208      0.042    19.5535  83.265953     0.7760     0.1810     6.1971 1.9248e+03  0.000e+00
        209      0.045    19.5526  83.295687     0.8730     0.1991     6.1814 1.5524e+03  0.000e+00
        210      0.040    19.5501  83.295688     0.7760     0.1810     6.1523 1.9140e+03  0.000e+00
        211      0.034    19.5373  83.265957     0.8730     0.2172     6.1350 1.5969e+03  0.000e+00
        212      0.028    19.5177  83.265963     0.7275     0.2353     6.1128 1.7543e+03  0.000e+00
        213      0.034    19.4925  83.265970     0.8245     0.1991     6.0787 1.7729e+03  0.000e+00
        214      0.037    19.4708  83.265976     0.8245     0.2172     6.0363 1.3822e+03  0.000e+00
        215      0.038    19.4572  83.206512     0.8730     0.2172     5.9874 1.7271e+03  0.000e+00
        216      0.031    19.4442  83.206515     0.4365     0.1810     5.9499 1.6619e+03  0.000e+00
        217      0.024    19.4297  83.147052     0.9215     0.1991     5.9182 2.0074e+03  0.000e+00
        218      0.021    19.4189  83.206522     0.7760     0.2534     5.8987 1.7679e+03  0.000e+00
        219      0.023    19.4122  83.206524     0.8730     0.1991     5.8766 1.5192e+03  0.000e+00
        220      0.032    19.4103  83.206524     0.8245     0.1991     5.8640 1.6367e+03  0.000e+00
        221      0.041    19.4119  83.206524     0.8730     0.1810     5.8585 1.7429e+03  0.000e+00
        222      0.050    19.4120  83.147057     0.7275     0.2172     5.8636 1.6287e+03  0.000e+00
        223      0.044    19.4090  83.147057     0.8730     0.2353     5.8825 1.8466e+03  0.000e+00
        224      0.032    19.4019  83.117326     0.7275     0.2172     5.8997 1.6212e+03  0.000e+00
        225      0.020    19.3948  83.147061     0.8730     0.2172     5.9057 1.7478e+03  0.000e+00
        226      0.014    19.3875  83.147063     0.6790     0.1810     5.8878 1.8626e+03  0.000e+00
        227      0.024    19.3766  83.147066     0.7760     0.1991     5.8557 1.6842e+03  0.000e+00
        228      0.038    19.3672  83.147069     0.8730     0.2172     5.8135 1.7469e+03  0.000e+00
        229      0.047    19.3624  83.147070     0.8245     0.1991     5.7654 1.5719e+03  0.000e+00
        230      0.041    19.3558  83.147072     0.7760     0.1629     5.7309 2.2530e+03  0.000e+00
        231      0.026    19.3455  83.147074     0.6790     0.2172     5.6968 1.7528e+03  0.000e+00
        232      0.014    19.3391  83.147076     0.8245     0.1810     5.6632 1.5211e+03  0.000e+00
        233      0.020    19.3285  83.206546     0.8730     0.2172     5.6323 1.5086e+03  0.000e+00
        234      0.032    19.3216  83.147081     0.7760     0.1810     5.6080 1.6127e+03  0.000e+00
        235      0.040    19.3349  83.147077     0.7275     0.1991     5.5939 1.3634e+03  0.000e+00
        236      0.039    19.3477  83.087607     0.7760     0.1810     5.6228 1.4258e+03  0.000e+00
        237      0.027    19.3456  83.117341     0.7275     0.2172     5.6509 1.3951e+03  0.000e+00
        238      0.023    19.3563  83.147071     0.8245     0.2172     5.6763 1.2005e+03  0.000e+00
        239      0.026    19.3824  83.147064     0.8730     0.1991     5.6879 1.5104e+03  0.000e+00
        240      0.030    19.4150  83.206523     0.9215     0.1991     5.6882 9.5808e+02  0.000e+00
        241      0.030    19.4418  83.206516     0.8730     0.1991     5.6730 1.3959e+03  0.000e+00
        242      0.034    19.4581  83.147044     0.8730     0.2172     5.6467 1.4946e+03  0.000e+00
        243      0.035    19.4737  83.206507     0.7760     0.2534     5.6065 1.5499e+03  0.000e+00
        244      0.035    19.4886  83.147036     0.8245     0.2353     5.5625 1.3138e+03  0.000e+00
        245      0.031    19.4929  83.147035     0.8245     0.2172     5.5474 1.3939e+03  0.000e+00
        246      0.028    19.4853  83.147037     0.8730     0.1991     5.5457 1.3331e+03  0.000e+00
        247      0.029    19.4817  83.147038     0.8245     0.2172     5.5556 1.6215e+03  0.000e+00
        248      0.032    19.4888  83.147036     0.8245     0.2172     5.5707 1.4231e+03  0.000e+00
        249      0.038    19.4980  83.087566     0.8245     0.1810     5.5895 1.3863e+03  0.000e+00
        250      0.032    19.5013  83.147032     0.8245     0.1991     5.6164 1.2141e+03  0.000e+00
        251      0.029    19.5005  83.147033     0.7275     0.2534     5.6450 1.3064e+03  0.000e+00
        252      0.029    19.5008  83.147032     0.6790     0.1991     5.6715 1.4917e+03  0.000e+00
        253      0.029    19.5075  83.206498     0.8245     0.2172     5.6988 1.5318e+03  0.000e+00
        254      0.028    19.5157  83.206496     0.7760     0.1991     5.7239 1.3158e+03  0.000e+00
        255      0.026    19.5214  83.265962     0.8245     0.1991     5.7554 1.0376e+03  0.000e+00
        256      0.027    19.5269  83.265960     0.7760     0.1810     5.7900 1.6427e+03  0.000e+00
        257      0.036    19.5352  83.355160     0.7760     0.1810     5.8238 1.4097e+03  0.000e+00
        258      0.037    19.5450  83.355157     0.9700     0.1810     5.8619 1.6184e+03  0.000e+00
        259      0.035    19.5518  83.295687     0.8730     0.2353     5.9041 1.4590e+03  0.000e+00
        260      0.029    19.5486  83.265954     0.8730     0.2172     5.9473 1.6301e+03  0.000e+00
        261      0.026    19.5430  83.355157     0.8245     0.2353     5.9783 1.8502e+03  0.000e+00
        262      0.028    19.5456  83.384891     0.8245     0.2172     5.9920 1.3639e+03  0.000e+00
        263      0.030    19.5530  83.414623     0.8245     0.2172     5.9897 1.3538e+03  0.000e+00
        264      0.031    19.5594  83.414621     0.8730     0.2172     5.9806 1.4624e+03  0.000e+00
        265      0.035    19.5613  83.384887     0.8245     0.2172     5.9689 1.8936e+03  0.000e+00
        266      0.032    19.5573  83.355154     0.7275     0.2172     5.9466 2.0272e+03  0.000e+00
        267      0.029    19.5510  83.355155     0.7760     0.2534     5.9133 1.5353e+03  0.000e+00
        268      0.027    19.5418  83.355158     0.8245     0.1991     5.8710 1.6760e+03  0.000e+00
        269      0.027    19.5362  83.355159     0.8245     0.1991     5.8317 1.5730e+03  0.000e+00
        270      0.034    19.5394  83.384892     0.7760     0.1629     5.7803 1.7051e+03  0.000e+00
        271      0.034    19.5450  83.355157     0.8245     0.1629     5.7411 1.7081e+03  0.000e+00
        272      0.030    19.5442  83.295689     0.7275     0.1991     5.7096 1.2135e+03  0.000e+00
        273      0.025    19.5387  83.355159     0.7275     0.1810     5.6905 1.9262e+03  0.000e+00
        274      0.029    19.5387  83.414627     0.8245     0.2172     5.6663 1.7602e+03  0.000e+00
        275      0.035    19.5478  83.444358     0.7760     0.2534     5.6565 1.7754e+03  0.000e+00
        276      0.038    19.5550  83.414622     0.7275     0.1991     5.6711 1.3936e+03  0.000e+00
        277      0.031    19.5488  83.355156     0.8245     0.1991     5.7153 1.4284e+03  0.000e+00
        278      0.027    19.5407  83.355158     0.7760     0.2172     5.7612 1.7626e+03  0.000e+00
        279      0.028    19.5415  83.474094     0.8245     0.1991     5.7971 1.5149e+03  0.000e+00
        280      0.034    19.5467  83.533561     0.9215     0.1991     5.8199 1.6780e+03  0.000e+00
        281      0.035    19.5545  83.444356     0.8245     0.1810     5.8471 1.4159e+03  0.000e+00
        282      0.029    19.5562  83.355154     0.8245     0.1991     5.8730 1.2879e+03  0.000e+00
        283      0.023    19.5506  83.295688     0.8245     0.1991     5.8871 1.5855e+03  0.000e+00
        284      0.023    19.5487  83.355156     0.7760     0.1991     5.8737 1.5938e+03  0.000e+00
        285      0.030    19.5502  83.474092     0.8245     0.1810     5.8433 1.6869e+03  0.000e+00
        286      0.034    19.5559  83.503824     0.8730     0.1810     5.8121 1.9631e+03  0.000e+00
        287      0.034    19.5627  83.414620     0.8245     0.1991     5.8086 1.4151e+03  0.000e+00
        288      0.028    19.5555  83.355154     0.7760     0.2172     5.8385 1.4975e+03  0.000e+00
        289      0.018    19.5505  83.414623     0.6790     0.1448     5.8671 1.7204e+03  0.000e+00
        290      0.022    19.5530  83.593028     0.8730     0.1991     5.8910 1.8797e+03  0.000e+00
        291      0.030    19.5592  83.652495     0.8245     0.1991     5.9100 1.7555e+03  0.000e+00
        292      0.041    19.5698  83.593023     0.8245     0.1810     5.9438 1.6252e+03  0.000e+00
        293      0.036    19.5652  83.503822     0.7275     0.1991     6.0186 1.4524e+03  0.000e+00
        294      0.025    19.5570  83.474090     0.7760     0.1991     6.0879 1.7794e+03  0.000e+00
        295      0.019    19.5617  83.474088     0.7760     0.1991     6.1214 1.8797e+03  0.000e+00
        296      0.023    19.5674  83.593024     0.9215     0.2172     6.1134 1.3819e+03  0.000e+00
        297      0.032    19.5775  83.622755     0.8245     0.2353     6.0837 1.5353e+03  0.000e+00
        298      0.035    19.5866  83.622753     0.7760     0.1810     6.0602 1.5874e+03  0.000e+00
        299      0.034    19.5885  83.593018     0.8245     0.2353     6.0546 1.1767e+03  0.000e+00
        300      0.031    19.5805  83.533552     0.7760     0.2172     6.0750 1.7153e+03  0.000e+00
        301      0.026    19.5749  83.593022     0.7760     0.1991     6.1004 2.2506e+03  0.000e+00
        302      0.023    19.5774  84.009305     0.7760     0.1810     6.1291 1.7754e+03  0.000e+00
        303      0.025    19.5933  84.009301     0.8730     0.1810     6.2513 1.7531e+03  0.000e+00
        304      0.035    19.6099  84.068767     0.8245     0.1448     6.7234 1.6344e+03  0.000e+00
        305      0.037    19.6206  84.068764     0.7275     0.2172     7.4831 1.6229e+03  0.000e+00
        306      0.038    19.6266  84.039027     0.7760     0.1810     8.3090 1.5818e+03  0.000e+00
        307      0.032    19.6296  84.068761     0.7760     0.1991     9.0594 1.6896e+03  0.000e+00
        308      0.027    19.6313  84.128231     0.8245     0.2172     9.6752 1.7766e+03  0.000e+00
        309      0.030    19.6320  84.068761     0.8245     0.2172    10.1027 1.4985e+03  0.000e+00
        310      0.036    19.6325  84.068760     0.8245     0.2172    10.3095 1.7710e+03  0.000e+00
        311      0.039    19.6333  84.128230     0.7760     0.2353    10.2753 1.6042e+03  0.000e+00
        312      0.035    19.6347  84.039025     0.7760     0.1810     9.9930 1.7779e+03  0.000e+00
        313      0.023    19.6355  84.068760     0.7760     0.2172     9.6707 1.3605e+03  0.000e+00
        314      0.016    19.6363  84.068759     0.7760     0.1810     9.3644 1.5478e+03  0.000e+00
        315      0.027    19.6375  84.128229     0.8245     0.1991     9.1239 1.2622e+03  0.000e+00
        316      0.040    19.6393  84.068759     0.9215     0.2896     8.9422 2.4590e+03  0.000e+00
        317      0.045    19.6398  84.068759     0.7275     0.1991     8.8096 1.4094e+03  0.000e+00
        318      0.034    19.6394  84.068759     0.7275     0.2172     8.7098 1.1790e+03  0.000e+00
        319      0.021    19.6374  84.039024     1.0185     0.2534     8.6331 1.1884e+03  0.000e+00
        320      0.018    19.6354  84.068759     0.8245     0.1629     8.5798 1.0318e+03  0.000e+00
        321      0.028    19.6356  84.068760     0.7275     0.2534     8.5342 1.0940e+03  0.000e+00
        322      0.039    19.6375  84.128229     0.7760     0.2172     8.5059 1.5844e+03  0.000e+00
        323      0.040    19.6396  84.068759     0.6790     0.2172     8.4928 1.1934e+03  0.000e+00
        324      0.031    19.6407  84.068758     0.8245     0.1810     8.4859 1.5038e+03  0.000e+00
        325      0.022    19.6409  84.068758     0.7760     0.1810     8.4838 1.2311e+03  0.000e+00
        326      0.025    19.6405  84.068758     0.8730     0.2172     8.4828 1.1441e+03  0.000e+00
        327      0.031    19.6406  84.068758     0.6790     0.2715     8.4884 1.4608e+03  0.000e+00
        328      0.038    19.6411  84.068758     0.5335     0.1629     8.4844 1.1085e+03  0.000e+00
        329      0.038    19.6418  84.068758     0.8730     0.2172     8.4832 9.7901e+02  0.000e+00
        330      0.030    19.6422  84.068758     0.8245     0.1629     8.4790 1.2302e+03  0.000e+00
        331      0.023    19.6420  84.128228     0.8730     0.2172     8.4740 1.1965e+03  0.000e+00
        332      0.022    19.6412  84.068758     0.8245     0.2172     8.4720 1.0387e+03  0.000e+00
        333      0.031    19.6404  84.068758     0.9215     0.1810     8.4692 1.2133e+03  0.000e+00
        334      0.037    19.6406  84.068758     0.8245     0.1629     8.4650 1.3205e+03  0.000e+00
        335      0.035    19.6404  84.128228     0.8730     0.2353     8.4629 1.2143e+03  0.000e+00
        336      0.025    19.6399  84.009288     0.7275     0.2172     8.4702 1.0986e+03  0.000e+00
        337      0.023    19.6395  84.039023     0.6790     0.1991     8.4740 1.1798e+03  0.000e+00
        338      0.027    19.6395  84.128229     0.7275     0.1991     8.4725 1.3361e+03  0.000e+00
        339      0.033    19.6392  84.068759     0.8730     0.1629     8.4697 1.2428e+03  0.000e+00
        340      0.030    19.6380  84.068759     0.8245     0.2353     8.4701 1.1173e+03  0.000e+00
        341      0.024    19.6369  84.068759     0.7275     0.2172     8.4678 1.0284e+03  0.000e+00
        342      0.024    19.6357  84.068759     0.8245     0.1629     8.4666 1.3827e+03  0.000e+00
        343      0.023    19.6358  84.039024     0.7275     0.1629     8.4668 1.2188e+03  0.000e+00
        344      0.027    19.6357  84.068759     0.8730     0.1991     8.4683 1.0835e+03  0.000e+00
        345      0.029    19.6369  84.068759     0.8245     0.1991     8.4716 1.2760e+03  0.000e+00
        346      0.025    19.6399  84.128228     0.7275     0.2172     8.4676 9.4372e+02  0.000e+00
        347      0.022    19.6415  84.068758     0.7760     0.2353     8.4648 1.5302e+03  0.000e+00
        348      0.025    19.6428  84.068758     0.8245     0.1991     8.4608 1.0955e+03  0.000e+00
        349      0.030    19.6434  84.128227     0.9215     0.1991     8.4579 1.3832e+03  0.000e+00
        350      0.031    19.6433  84.068757     0.8245     0.2172     8.4600 1.1522e+03  0.000e+00
        351      0.028    19.6423  84.009288     0.8245     0.2353     8.4648 1.4387e+03  0.000e+00
        352      0.026    19.6417  84.128228     0.7275     0.1991     8.4718 1.0715e+03  0.000e+00
        353      0.025    19.6433  84.068757     0.7275     0.1810     8.4782 1.1564e+03  0.000e+00
        354      0.028    19.6442  84.068757     0.8245     0.1991     8.4798 1.3503e+03  0.000e+00
        355      0.029    19.6451  84.068757     0.8730     0.1991     8.4785 1.2033e+03  0.000e+00
        356      0.032    19.6459  84.128227     0.7275     0.2172     8.4796 1.5232e+03  0.000e+00
        357      0.029    19.6461  84.009287     0.7760     0.2172     8.4779 1.8457e+03  0.000e+00
        358      0.029    19.6457  84.039022     0.6790     0.1267     8.4776 1.0877e+03  0.000e+00
        359      0.026    19.6453  84.068757     0.8245     0.1810     8.4709 1.0659e+03  0.000e+00
        360      0.027    19.6446  84.068757     0.8730     0.1991     8.4725 1.4473e+03  0.000e+00
        361      0.032    19.6445  84.068757     0.7760     0.1448     8.4716 1.9870e+03  0.000e+00
        362      0.032    19.6450  84.068757     0.9700     0.1991     8.4684 1.0755e+03  0.000e+00
        363      0.029    19.6454  84.068757     0.9700     0.3258     8.4658 1.1802e+03  0.000e+00
        364      0.027    19.6444  84.128227     0.8245     0.2534     8.4628 1.5375e+03  0.000e+00
        365      0.027    19.6438  84.068757     0.7760     0.2172     8.4674 9.5573e+02  0.000e+00
        366      0.031    19.6443  84.068757     0.7760     0.2172     8.4708 1.2706e+03  0.000e+00
        367      0.029    19.6444  84.128227     0.8245     0.1991     8.4732 1.2722e+03  0.000e+00
        368      0.027    19.6443  84.128227     0.8245     0.1991     8.4796 1.2562e+03  0.000e+00
        369      0.030    19.6437  84.128227     0.8730     0.1991     8.4835 1.2250e+03  0.000e+00
        370      0.033    19.6430  84.009288     0.8730     0.2172     8.4898 1.0190e+03  0.000e+00
        371      0.038    19.6423  84.068758     0.7760     0.2172     8.4851 1.4286e+03  0.000e+00
        372      0.031    19.6422  84.068758     0.7275     0.2172     8.4744 1.2586e+03  0.000e+00
        373      0.026    19.6420  84.068758     0.8245     0.2353     8.4666 1.1540e+03  0.000e+00
        374      0.026    19.6426  84.068758     0.7760     0.2172     8.4653 1.3615e+03  0.000e+00
        375      0.030    19.6445  84.068757     0.8245     0.1810     8.4668 8.6770e+02  0.000e+00
        376      0.035    19.6464  84.068757     0.8245     0.1991     8.4671 1.2337e+03  0.000e+00
        377      0.032    19.6475  84.128226     0.8245     0.2534     8.4680 1.1250e+03  0.000e+00
        378      0.025    19.6482  84.187696     0.7760     0.2172     8.4652 1.5064e+03  0.000e+00
        379      0.026    19.6490  84.068756     0.8245     0.2353     8.4672 1.6719e+03  0.000e+00
        380      0.027    19.6501  84.068756     0.8245     0.1991     8.4654 1.5936e+03  0.000e+00
        381      0.032    19.6505  84.128226     0.8730     0.2534     8.4620 1.2850e+03  0.000e+00
        382      0.029    19.6505  84.068755     1.0185     0.1991     8.4570 1.6110e+03  0.000e+00
        383      0.029    19.6497  84.128226     0.8730     0.2172     8.4544 1.6979e+03  0.000e+00
        384      0.026    19.6482  84.068756     0.6790     0.1991     8.4602 2.0254e+03  0.000e+00
        385      0.024    19.6473  84.128226     0.8730     0.1991     8.4638 1.6195e+03  0.000e+00
        386      0.026    19.6464  84.128227     0.7760     0.2353     8.4704 1.6572e+03  0.000e+00
        387      0.030    19.6459  84.068757     0.7760     0.1991     8.4743 1.7216e+03  0.000e+00
        388      0.029    19.6458  84.068757     0.7760     0.2172     8.4750 1.7442e+03  0.000e+00
        389      0.030    19.6463  84.068757     0.7275     0.2172     8.4724 1.3706e+03  0.000e+00
        390      0.026    19.6467  84.068756     0.8245     0.2353     8.4727 1.8199e+03  0.000e+00
        391      0.027    19.6472  84.068756     0.8245     0.1991     8.4686 1.8097e+03  0.000e+00
        392      0.030    19.6473  84.128226     0.7275     0.2172     8.4660 1.9269e+03  0.000e+00
        393      0.032    19.6473  84.128226     0.8245     0.2172     8.4651 1.6727e+03  0.000e+00
        394      0.031    19.6466  84.068757     0.9700     0.1810     8.4681 1.5975e+03  0.000e+00
        395      0.026    19.6464  84.128227     0.6790     0.1991     8.4629 1.6474e+03  0.000e+00
        396      0.023    19.6474  84.068756     0.8730     0.2715     8.4664 1.9060e+03  0.000e+00
        397      0.028    19.6481  84.068756     0.8245     0.2353     8.4680 1.7144e+03  0.000e+00
        398      0.035    19.6486  84.128226     0.8730     0.2172     8.4647 2.1653e+03  0.000e+00
        399      0.038    19.6493  84.128226     0.7760     0.2715     8.4644 1.3228e+03  0.000e+00
        400      0.033    19.6503  84.128226     0.8245     0.2896     8.4697 1.5816e+03  0.000e+00
        401      0.025    19.6508  84.128225     0.5820     0.1991     8.4690 1.6584e+03  0.000e+00
        402      0.024    19.6508  84.068755     0.8730     0.1991     8.4762 1.8764e+03  0.000e+00
        403      0.030    19.6507  84.128226     0.7760     0.1991     8.4783 1.7945e+03  0.000e+00
        404      0.038    19.6508  84.068755     0.9215     0.1991     8.4796 1.5791e+03  0.000e+00
        405      0.033    19.6507  84.128226     0.8245     0.1991     8.4797 1.3529e+03  0.000e+00
        406      0.029    19.6508  84.068755     0.7275     0.1991     8.4675 1.4555e+03  0.000e+00
        407      0.027    19.6505  84.068755     0.7760     0.1991     8.4602 1.7238e+03  0.000e+00
        408      0.036    19.6509  84.068755     0.7760     0.2172     8.4557 1.6376e+03  0.000e+00
        409      0.042    19.6508  84.128226     0.8245     0.1810     8.4499 1.4094e+03  0.000e+00
        410      0.032    19.6508  84.068755     0.8245     0.2534     8.4464 1.4768e+03  0.000e+00
        411      0.026    19.6509  84.128225     0.7760     0.1810     8.4542 1.7848e+03  0.000e+00
        412      0.022    19.6508  84.128225     0.8245     0.1991     8.4632 1.8986e+03  0.000e+00
        413      0.029    19.6508  84.128225     0.7275     0.2353     8.4696 1.6813e+03  0.000e+00
        414      0.038    19.6506  84.128226     0.7760     0.1810     8.4762 1.8328e+03  0.000e+00
        415      0.039    19.6505  84.068756     0.7760     0.2353     8.4760 1.4969e+03  0.000e+00
        416      0.029    19.6502  84.128226     0.8245     0.2353     8.4763 1.6361e+03  0.000e+00
        417      0.020    19.6499  84.128226     0.7275     0.1991     8.4785 1.9384e+03  0.000e+00
        418      0.021    19.6490  84.039021     0.8730     0.2353     8.4785 1.5752e+03  0.000e+00
        419      0.031    19.6482  84.068756     0.8730     0.3801     8.4780 1.7387e+03  0.000e+00
        420      0.041    19.6482  84.128226     0.8730     0.1810     8.4774 1.4964e+03  0.000e+00
        421      0.039    19.6486  84.128226     0.7760     0.2172     8.4804 1.6529e+03  0.000e+00
        422      0.029    19.6497  84.009286     0.8245     0.2353     8.4796 1.4678e+03  0.000e+00
        423      0.023    19.6498  84.128226     0.8245     0.1991     8.4843 1.6893e+03  0.000e+00
        424      0.025    19.6494  84.128226     0.7760     0.1810     8.4841 1.7414e+03  0.000e+00
        425      0.031    19.6494  84.068756     0.8730     0.1991     8.4909 1.4750e+03  0.000e+00
        426      0.035    19.6497  84.068756     0.8730     0.1991     8.4900 1.3682e+03  0.000e+00
        427      0.037    19.6503  84.128226     0.7760     0.2353     8.4894 1.6634e+03  0.000e+00
        428      0.031    19.6505  84.068755     0.8730     0.1810     8.4881 1.7741e+03  0.000e+00
        429      0.026    19.6503  84.128226     0.7760     0.1991     8.4801 1.7933e+03  0.000e+00
        430      0.025    19.6503  84.068755     0.7275     0.2172     8.4836 1.5064e+03  0.000e+00
        431      0.029    19.6502  84.068756     0.7275     0.2353     8.4806 1.5952e+03  0.000e+00
        432      0.035    19.6500  84.128226     0.7760     0.1810     8.4812 1.6863e+03  0.000e+00
        433      0.033    19.6500  84.128226     0.7760     0.1810     8.4849 1.5860e+03  0.000e+00
        434      0.029    19.6502  84.068756     0.6790     0.1810     8.4942 1.4542e+03  0.000e+00
        435      0.030    19.6508  84.128225     0.8245     0.2172     8.4991 1.7948e+03  0.000e+00
        436      0.035    19.6517  84.128225     0.8245     0.1991     8.4897 1.0382e+03  0.000e+00
        437      0.037    19.6526  84.068755     0.8245     0.1991     8.4854 1.2150e+03  0.000e+00
        438      0.030    19.6526  84.128225     0.7760     0.2353     8.4770 1.2963e+03  0.000e+00
        439      0.025    19.6520  84.068755     0.8245     0.2534     8.4771 1.5587e+03  0.000e+00
        440      0.026    19.6510  84.068755     0.8245     0.1991     8.4789 1.3441e+03  0.000e+00
        441      0.032    19.6498  84.068756     0.8245     0.1629     8.4867 1.1967e+03  0.000e+00
        442      0.039    19.6498  84.128226     0.8730     0.2353     8.4826 1.0289e+03  0.000e+00
        443      0.038    19.6500  84.068756     0.8245     0.2353     8.4884 1.3963e+03  0.000e+00
        444      0.029    19.6508  84.128225     0.7760     0.2353     8.4964 1.0529e+03  0.000e+00
        445      0.023    19.6517  84.128225     0.8245     0.1991     8.4977 1.1792e+03  0.000e+00
        446      0.028    19.6519  84.068755     0.8730     0.1991     8.4971 1.3087e+03  0.000e+00
        447      0.038    19.6519  84.068755     0.7760     0.2172     8.4971 1.1836e+03  0.000e+00
        448      0.040    19.6522  84.068755     0.7760     0.1810     8.4857 1.1252e+03  0.000e+00
        449      0.032    19.6517  84.068755     0.8245     0.1810     8.4835 9.9409e+02  0.000e+00
        450      0.026    19.6510  84.068755     0.7760     0.1991     8.4884 1.6011e+03  0.000e+00
        451      0.024    19.6502  84.068755     0.7760     0.2172     8.4833 1.0687e+03  0.000e+00
        452      0.031    19.6496  84.068756     0.9215     0.1810     8.4758 1.1248e+03  0.000e+00
        453      0.036    19.6495  84.068756     0.7760     0.1991     8.4734 1.8415e+03  0.000e+00
        454      0.034    19.6493  84.128226     0.8730     0.2172     8.4711 1.0973e+03  0.000e+00
        455      0.032    19.6498  84.128226     0.7275     0.2172     8.4733 1.0289e+03  0.000e+00
        456      0.033    19.6505  84.128226     0.7760     0.1991     8.4711 1.1371e+03  0.000e+00
        457      0.032    19.6511  84.068755     0.7760     0.1629     8.4692 1.3361e+03  0.000e+00
        458      0.031    19.6517  84.187696     0.7275     0.2172     8.4672 8.9715e+02  0.000e+00
        459      0.032    19.6521  84.128225     0.8245     0.1810     8.4720 1.1844e+03  0.000e+00
        460      0.032    19.6525  84.009285     0.8245     0.1991     8.4809 1.2242e+03  0.000e+00
        461      0.036    19.6526  84.128225     0.8245     0.2172     8.4831 1.1857e+03  0.000e+00
        462      0.036    19.6523  84.128225     0.8245     0.2172     8.4865 1.3345e+03  0.000e+00
        463      0.029    19.6523  84.068755     0.7760     0.2353     8.4887 1.0772e+03  0.000e+00
        464      0.026    19.6518  84.128225     0.8245     0.2172     8.5001 1.1544e+03  0.000e+00
        465      0.028    19.6514  84.128225     0.8730     0.1629     8.4934 1.1485e+03  0.000e+00
        466      0.037    19.6514  84.068755     0.7760     0.1991     8.4972 9.7901e+02  0.000e+00
        467      0.041    19.6520  84.128225     0.8730     0.1810     8.4869 1.1714e+03  0.000e+00
        468      0.037    19.6523  84.068755     0.8245     0.1810     8.4814 1.1951e+03  0.000e+00
        469      0.027    19.6518  84.128225     0.8245     0.2353     8.4791 1.2688e+03  0.000e+00
        470      0.023    19.6510  84.068755     0.8245     0.2172     8.4768 1.3939e+03  0.000e+00
        471      0.032    19.6495  84.128226     0.9215     0.1810     8.4695 1.3128e+03  0.000e+00
        472      0.046    19.6483  84.068756     0.8245     0.1991     8.4664 1.2195e+03  0.000e+00
        473      0.053    19.6480  84.068756     0.8245     0.1810     8.4740 1.3043e+03  0.000e+00
        474      0.046    19.6491  84.128226     0.8245     0.2172     8.4765 1.4296e+03  0.000e+00
        475      0.036    19.6498  84.128226     0.7760     0.1991     8.4800 1.2118e+03  0.000e+00
        476      0.032    19.6494  84.068756     0.9215     0.1810     8.4860 1.5975e+03  0.000e+00
        477      0.040    19.6482  84.068756     0.7275     0.2172     8.4881 1.2118e+03  0.000e+00
        478      0.047    19.6476  84.068756     0.8245     0.1991     8.4956 1.2348e+03  0.000e+00
        479      0.047    19.6481  84.068756     0.8245     0.2172     8.4917 1.0695e+03  0.000e+00
        480      0.040    19.6488  84.068756     0.7760     0.2353     8.4928 1.0295e+03  0.000e+00
        481      0.028    19.6502  84.128226     0.8730     0.1810     8.4838 1.2113e+03  0.000e+00
        482      0.026    19.6514  84.068755     0.8245     0.1991     8.4873 1.0778e+03  0.000e+00
        483      0.027    19.6518  84.128225     0.7760     0.1991     8.4934 1.1058e+03  0.000e+00
        484      0.029    19.6522  84.068755     0.7760     0.1991     8.4953 9.7438e+02  0.000e+00
        485      0.031    19.6521  84.128225     0.8730     0.1810     8.4914 1.0075e+03  0.000e+00
        486      0.033    19.6522  84.068755     0.8245     0.2172     8.4815 1.3094e+03  0.000e+00
        487      0.039    19.6526  84.068755     0.8245     0.2172     8.4781 9.1836e+02  0.000e+00
        488      0.037    19.6534  84.128225     0.8245     0.1991     8.4764 1.1710e+03  0.000e+00
        489      0.033    19.6540  84.128225     0.8730     0.1991     8.4851 7.9347e+02  0.000e+00
        490      0.025    19.6544  84.128224     0.7275     0.2715     8.4837 8.5394e+02  0.000e+00
        491      0.023    19.6544  84.128224     0.8245     0.1991     8.4857 1.1459e+03  0.000e+00
        492      0.031    19.6544  84.128224     0.7275     0.1991     8.4869 1.5195e+03  0.000e+00
        493      0.041    19.6547  84.128224     0.8730     0.2172     8.5012 1.0592e+03  0.000e+00
        494      0.045    19.6553  84.128224     0.7275     0.2353     8.5037 1.2268e+03  0.000e+00
        495      0.039    19.6555  84.068754     0.8730     0.2172     8.4908 1.2747e+03  0.000e+00
        496      0.028    19.6553  84.068754     0.7760     0.2172     8.4802 1.1963e+03  0.000e+00
        497      0.022    19.6550  84.128224     0.8245     0.2172     8.4730 1.0497e+03  0.000e+00
        498      0.031    19.6546  84.068754     0.8245     0.1991     8.4649 1.2029e+03  0.000e+00
        499      0.040    19.6551  84.128224     0.7760     0.1991     8.4639 1.4231e+03  0.000e+00
        500      0.039    19.6552  84.068754     0.8730     0.1629     8.4646 1.1836e+03  0.000e+00
        501      0.037    19.6554  84.187695     0.8245     0.1810     8.4613 9.1756e+02  0.000e+00
        502      0.032    19.6554  84.128224     0.8245     0.2172     8.4658 1.1023e+03  0.000e+00
        503      0.031    19.6553  84.128224     0.8245     0.1629     8.4729 9.3398e+02  0.000e+00
        504      0.037    19.6553  84.128224     0.8245     0.1810     8.4792 1.1169e+03  0.000e+00
        505      0.045    19.6555  84.068754     0.8730     0.1810     8.4803 9.8661e+02  0.000e+00
        506      0.044    19.6551  84.128224     0.8245     0.2353     8.4804 1.2879e+03  0.000e+00
        507      0.042    19.6552  84.128224     0.8245     0.1810     8.4812 1.3233e+03  0.000e+00
        508      0.032    19.6550  84.068754     0.8245     0.1991     8.4773 1.2778e+03  0.000e+00
        509      0.031    19.6548  84.128224     0.8730     0.2172     8.4705 1.1114e+03  0.000e+00
        510      0.033    19.6543  84.128225     0.7275     0.1810     8.4690 9.6892e+02  0.000e+00
        511      0.039    19.6541  84.128225     0.7760     0.2172     8.4650 9.1065e+02  0.000e+00
        512      0.039    19.6544  84.128225     0.8245     0.1991     8.4644 1.1689e+03  0.000e+00
        513      0.033    19.6544  84.128224     0.8245     0.1991     8.4676 1.1716e+03  0.000e+00
        514      0.026    19.6539  84.128225     0.7760     0.2353     8.4802 1.3202e+03  0.000e+00
        515      0.027    19.6539  84.128225     0.7760     0.2172     8.4945 1.0678e+03  0.000e+00
        516      0.031    19.6537  84.068755     0.7760     0.2172     8.5054 9.2679e+02  0.000e+00
        517      0.034    19.6538  84.128225     0.8245     0.2172     8.5098 1.0557e+03  0.000e+00
        518      0.030    19.6543  84.128225     0.7275     0.2172     8.5089 1.3639e+03  0.000e+00
        519      0.031    19.6549  84.128224     0.7760     0.1991     8.5046 1.2648e+03  0.000e+00
        520      0.033    19.6551  84.128224     0.7760     0.1810     8.5013 1.1599e+03  0.000e+00
        521      0.038    19.6553  84.128224     0.7760     0.2353     8.4855 1.1469e+03  0.000e+00
        522      0.035    19.6558  84.128224     0.7760     0.1991     8.4743 1.0680e+03  0.000e+00
        523      0.028    19.6562  84.068754     0.7275     0.2172     8.4682 1.0667e+03  0.000e+00
        524      0.025    19.6565  84.128224     0.7275     0.1991     8.4644 1.2834e+03  0.000e+00
        525      0.033    19.6565  84.187694     0.8730     0.2353     8.4700 1.1060e+03  0.000e+00
        526      0.045    19.6571  84.128224     0.8730     0.2353     8.4732 1.0710e+03  0.000e+00
        527      0.046    19.6575  84.128224     0.8730     0.2172     8.4724 1.1315e+03  0.000e+00
        528      0.037    19.6578  84.128224     0.8245     0.2172     8.4805 1.0435e+03  0.000e+00
        529      0.028    19.6572  84.128224     0.7275     0.1991     8.4839 1.1894e+03  0.000e+00
        530      0.030    19.6566  84.128224     0.7760     0.1629     8.4931 1.0682e+03  0.000e+00
        531      0.038    19.6564  84.068754     0.8245     0.1810     8.4962 9.9165e+02  0.000e+00
        532      0.043    19.6562  84.187694     0.9215     0.2172     8.4964 1.5412e+03  0.000e+00
        533      0.036    19.6566  84.128224     0.7275     0.2896     8.4993 1.1246e+03  0.000e+00
        534      0.029    19.6569  84.128224     0.9700     0.1267     8.5025 1.1786e+03  0.000e+00
        535      0.030    19.6571  84.068754     0.8730     0.1991     8.4952 1.0293e+03  0.000e+00
        536      0.037    19.6571  84.157959     0.8245     0.1629     8.4914 1.3822e+03  0.000e+00
        537      0.039    19.6575  84.128224     0.7760     0.2172     8.4880 1.1128e+03  0.000e+00
        538      0.037    19.6577  84.068754     0.7760     0.1810     8.4709 1.0190e+03  0.000e+00
        539      0.030    19.6574  84.128224     0.7760     0.2172     8.4560 1.4453e+03  0.000e+00
        540      0.026    19.6569  84.128224     0.7760     0.1991     8.4432 9.6298e+02  0.000e+00
        541      0.029    19.6565  84.128224     0.8245     0.2172     8.4339 1.1538e+03  0.000e+00
        542      0.040    19.6565  84.157959     0.8730     0.2172     8.4342 1.2374e+03  0.000e+00
        543      0.043    19.6570  84.128224     0.9215     0.2353     8.4395 1.1707e+03  0.000e+00
        544      0.032    19.6570  84.128224     0.9215     0.2172     8.4451 1.4445e+03  0.000e+00
        545      0.030    19.6566  84.068754     0.7275     0.2172     8.4646 1.3126e+03  0.000e+00
        546      0.032    19.6562  84.128224     0.8245     0.1991     8.4821 1.4463e+03  0.000e+00
        547      0.041    19.6565  84.128224     0.7760     0.2172     8.5062 1.0596e+03  0.000e+00
        548      0.045    19.6568  84.187694     0.7760     0.1991     8.5200 1.1502e+03  0.000e+00
        549      0.040    19.6570  84.128224     0.8730     0.2172     8.5248 1.4935e+03  0.000e+00
        550      0.035    19.6571  84.128224     0.8245     0.2353     8.5258 1.3776e+03  0.000e+00
        551      0.033    19.6569  84.128224     0.6790     0.1991     8.5244 1.5459e+03  0.000e+00
        552      0.033    19.6565  84.128224     0.8730     0.1810     8.5069 9.4173e+02  0.000e+00
        553      0.037    19.6567  84.128224     0.7275     0.1991     8.4888 1.6914e+03  0.000e+00
        554      0.040    19.6562  84.068754     0.8245     0.2353     8.4799 1.5429e+03  0.000e+00
        555      0.042    19.6562  84.128224     0.8245     0.2172     8.4669 1.5816e+03  0.000e+00
        556      0.038    19.6567  84.128224     0.8730     0.2172     8.4649 1.2620e+03  0.000e+00
        557      0.033    19.6569  84.128224     0.6790     0.1991     8.4556 1.3441e+03  0.000e+00
        558      0.031    19.6571  84.128224     0.8245     0.2534     8.4526 1.6857e+03  0.000e+00
        559      0.037    19.6569  84.128224     0.8730     0.2172     8.4581 1.6255e+03  0.000e+00
        560      0.040    19.6570  84.128224     0.7760     0.2534     8.4738 1.2361e+03  0.000e+00
        561      0.040    19.6573  84.128224     0.7760     0.2353     8.4801 1.0520e+03  0.000e+00
        562      0.035    19.6577  84.128224     0.8245     0.2353     8.4812 1.6964e+03  0.000e+00
        563      0.031    19.6573  84.187694     0.9700     0.2172     8.4864 1.5054e+03  0.000e+00
        564      0.029    19.6570  84.128224     0.8730     0.2353     8.4885 1.5459e+03  0.000e+00
        565      0.029    19.6566  84.068754     0.7275     0.2172     8.4932 1.7396e+03  0.000e+00
        566      0.037    19.6567  84.128224     0.7760     0.2172     8.4905 1.3446e+03  0.000e+00
        567      0.043    19.6571  84.128224     0.7760     0.2172     8.4845 1.4203e+03  0.000e+00
        568      0.043    19.6578  84.187694     0.8245     0.2172     8.4856 1.4278e+03  0.000e+00
        569      0.040    19.6578  84.128224     0.7275     0.1810     8.4880 1.5380e+03  0.000e+00
        570      0.034    19.6573  84.128224     0.8245     0.2172     8.4903 1.4258e+03  0.000e+00
        571      0.034    19.6567  84.128224     0.7275     0.2172     8.4816 1.6546e+03  0.000e+00
        572      0.038    19.6558  84.128224     0.8245     0.1629     8.4751 1.5464e+03  0.000e+00
        573      0.044    19.6547  84.128225     0.7760     0.1810     8.4775 1.0494e+03  0.000e+00
        574      0.050    19.6544  84.128225     0.7275     0.2172     8.4793 1.3094e+03  0.000e+00
        575      0.050    19.6560  84.157959     0.7760     0.1991     8.4806 1.0508e+03  0.000e+00
        576      0.044    19.6571  84.128224     0.8245     0.1810     8.4840 1.6439e+03  0.000e+00
        577      0.043    19.6580  84.128224     0.8730     0.1810     8.4880 1.3147e+03  0.000e+00
        578      0.066    19.6589  84.128224     0.9215     0.1991     8.4921 1.2562e+03  0.000e+00
        579      0.109    19.6605  84.187694     0.7760     0.1991     8.4895 1.5184e+03  0.000e+00
        580      0.170    19.6620  84.128224     0.8245     0.1991     8.4851 7.7392e+02  0.000e+00
        581      0.248    19.6631  84.128224     0.8730     0.1991     8.4908 1.1120e+03  0.000e+00
        582      0.325    19.6638  84.217430     0.9215     0.1991     8.4876 1.1027e+03  0.000e+00
        583      0.401    19.6637  84.128225     0.8245     0.2172     8.4941 7.8847e+02  0.000e+00
        584      0.490    19.6634  84.187696     0.7760     0.2172     8.4877 1.1857e+03  0.000e+00
        585      0.581    19.6632  84.128227     0.8730     0.2172     8.4887 9.9305e+02  0.000e+00
        586      0.654    19.6626  84.128227     0.8730     0.2172     8.4898 9.9130e+02  0.000e+00
        587      0.703    19.6623  84.128228     0.8245     0.2172     8.4987 7.6972e+02  0.000e+00
        588      0.727    19.6619  84.128228     0.8245     0.1810     8.4968 7.8432e+02  0.000e+00
        589      0.781    19.6613  84.068759     0.7760     0.1991     8.4969 1.0764e+03  0.000e+00
        590      0.861    19.6605  84.187700     0.9215     0.1991     8.4969 9.0507e+02  0.000e+00
        591      0.931    19.6586  84.128231     0.8730     0.2172     8.4873 9.7507e+02  0.000e+00
        592      0.985    19.6574  84.128231     0.8730     0.2172     8.4898 8.0952e+02  0.000e+00
        593      1.037    19.6569  84.128232     0.8730     0.2172     8.4866 7.2165e+02  0.000e+00
        594      1.091    19.6562  84.128233     0.9215     0.2172     8.4851 9.6230e+02  0.000e+00
        595      1.165    19.6548  84.187704     0.8730     0.1991     8.4896 7.7406e+02  0.000e+00
        596      1.242    19.6537  84.128234     0.9215     0.2172     8.4995 1.0903e+03  0.000e+00
        597      1.302    19.6518  84.068765     0.9215     0.1991     8.5028 6.9161e+02  0.000e+00
        598      1.350    19.6494  84.128236     0.9215     0.2172     8.5071 1.3749e+03  0.000e+00
        599      1.409    19.6449  84.068768     0.8730     0.2172     8.5104 6.2746e+02  0.000e+00
        600      1.472    19.6420  84.068769     0.8245     0.1991     8.5164 7.7705e+02  0.000e+00
        601      1.523    19.6402  84.068770     0.8245     0.2353     8.5131 8.3260e+02  0.000e+00
        602      1.569    19.6390  84.068771     0.9700     0.2172     8.5129 7.0263e+02  0.000e+00
        603      1.626    19.6382  84.068772     0.9215     0.2172     8.5012 5.1801e+02  0.000e+00
        604      1.693    19.6367  84.068773     0.8730     0.1991     8.4942 6.5899e+02  0.000e+00
        605      1.746    19.6352  84.068773     0.8730     0.1991     8.4914 1.0060e+03  0.000e+00
        606      1.804    19.6345  84.068774     0.8730     0.2172     8.4946 5.8467e+02  0.000e+00
        607      1.862    19.6338  84.128245     0.9215     0.1810     8.4930 5.4394e+02  0.000e+00
        608      1.920    19.6332  84.009305     0.8730     0.1991     8.4883 7.6285e+02  0.000e+00
        609      1.975    19.6326  84.068776     0.8245     0.2534     8.4856 6.4151e+02  0.000e+00
        610      2.025    19.6317  84.068777     0.8245     0.2172     8.4933 5.2011e+02  0.000e+00
        611      2.069    19.6313  84.068777     0.8245     0.2172     8.4995 6.8725e+02  0.000e+00
        612      2.126    19.6313  84.068778     0.8730     0.1991     8.5071 7.4825e+02  0.000e+00
        613      2.194    19.6312  84.068778     0.8730     0.2353     8.5072 8.1066e+02  0.000e+00
        614      2.274    19.6310  84.068779     0.8730     0.2353     8.5091 6.0198e+02  0.000e+00
        615      2.340    19.6312  84.068779     0.8730     0.2172     8.5028 6.2978e+02  0.000e+00
        616      2.389    19.6316  84.068780     0.8245     0.1991     8.5037 6.8955e+02  0.000e+00
        617      2.462    19.6315  84.068780     0.8730     0.2534     8.4961 5.6917e+02  0.000e+00
        618      2.555    19.6303  84.068781     0.8730     0.2353     8.4925 6.6785e+02  0.000e+00
        619      2.630    19.6287  84.068782     0.8245     0.2353     8.4809 6.9845e+02  0.000e+00
        620      2.685    19.6274  84.068783     0.9215     0.2534     8.4696 5.2460e+02  0.000e+00
        621      2.736    19.6266  84.068784     0.9700     0.2353     8.4581 5.4787e+02  0.000e+00
        622      2.784    19.6256  84.068784     0.8730     0.2896     8.4551 5.8129e+02  0.000e+00
        623      2.834    19.6239  84.009315     0.9215     0.2534     8.4585 5.8488e+02  0.000e+00
        624      2.904    19.6234  84.039051     0.9215     0.2353     8.4638 7.1095e+02  0.000e+00
        625      2.976    19.6241  84.068786     0.8730     0.2715     8.4626 5.5641e+02  0.000e+00
        626      3.038    19.6247  84.068787     0.8245     0.2353     8.4644 4.2600e+02  0.000e+00
        627      3.102    19.6259  84.039052     0.8730     0.2534     8.4688 4.1733e+02  0.000e+00
        628      3.180    19.6268  84.068787     0.8730     0.2534     8.4666 5.2728e+02  0.000e+00
        629      3.265    19.6269  84.068788     0.9215     0.2715     8.4686 7.7229e+02  0.000e+00
        630      3.328    19.6261  84.009319     0.8245     0.2353     8.4785 6.5980e+02  0.000e+00
        631      3.374    19.6256  84.009319     0.8730     0.2896     8.4806 4.2175e+02  0.000e+00
        632      3.426    19.6242  84.039055     0.9215     0.2534     8.4843 4.0094e+02  0.000e+00
        633      3.485    19.6225  84.009321     0.8245     0.2715     8.4888 4.8523e+02  0.000e+00
        634      3.553    19.6196  84.009322     0.9215     0.2715     8.4916 5.4710e+02  0.000e+00
        635      3.634    19.6164  84.039059     0.9700     0.2715     8.4936 5.6439e+02  0.000e+00
        636      3.703    19.6139  83.949855     0.8730     0.2896     8.4993 5.4042e+02  0.000e+00
        637      3.788    19.6123  84.068796     0.9700     0.2715     8.4996 6.3056e+02  0.000e+00
        638      3.889    19.6125  84.068797     0.8730     0.3077     8.5028 5.2194e+02  0.000e+00
        639      3.965    19.6149  84.068797     0.9215     0.2715     8.5072 4.6848e+02  0.000e+00
        640      4.002    19.6171  84.039062     0.9215     0.2896     8.5095 5.1114e+02  0.000e+00
        641      4.026    19.6181  84.009327     0.8245     0.2896     8.5165 4.8141e+02  0.000e+00
        642      4.082    19.6181  84.039062     1.6975     0.2715     8.5087 5.5925e+02  0.000e+00
        643      4.159    19.6174  84.009328     0.9215     0.2896     8.5093 4.7361e+02  0.000e+00
        644      4.228    19.6141  84.009329     0.9215     0.2896     8.5008 3.9611e+02  0.000e+00
        645      4.288    19.6105  83.979596     0.9215     0.3258     8.4965 4.3791e+02  0.000e+00
        646      4.330    19.6081  84.009332     0.8730     0.3439     8.4782 4.1880e+02  0.000e+00
        647      4.365    19.6063  83.979598     0.9215     0.3258     8.4662 5.4318e+02  0.000e+00
        648      4.414    19.6047  84.068803     0.8730     0.3258     8.4584 4.0654e+02  0.000e+00
        649      4.473    19.6037  84.009334     0.9700     0.3258     8.4598 4.6684e+02  0.000e+00
        650      4.543    19.6035  84.039070     0.9700     0.3077     8.4608 4.0626e+02  0.000e+00
        651      4.632    19.6033  84.009335     0.9215     0.3258     8.4658 4.2720e+02  0.000e+00
        652      4.708    19.6027  83.949866     0.8730     0.3258     8.4709 4.4874e+02  0.000e+00
        653      4.748    19.6025  83.979602     0.8245     0.3620     8.4866 4.4435e+02  0.000e+00
        654      4.774    19.6019  84.009337     0.8245     0.3620     8.4929 3.5836e+02  0.000e+00
        655      4.812    19.6015  84.039072     0.8730     0.3439     8.5030 4.0984e+02  0.000e+00
        656      4.882    19.6014  83.949868     0.9215     0.3620     8.5055 4.5605e+02  0.000e+00
        657      4.972    19.6014  84.009339     0.8730     0.3439     8.5107 4.2383e+02  0.000e+00
        658      5.061    19.6005  83.979605     0.9215     0.3439     8.5089 3.8317e+02  0.000e+00
        659      5.129    19.5981  84.009341     0.8730     0.3620     8.5090 3.9729e+02  0.000e+00
        660      5.203    19.5948  83.979607     0.7760     0.3439     8.5119 3.2718e+02  0.000e+00
        661      5.277    19.5918  83.949874     0.8730     0.3982     8.5045 3.3669e+02  0.000e+00
        662      5.357    19.5899  84.009345     0.8245     0.3620     8.5041 3.6857e+02  0.000e+00
        663      5.444    19.5886  83.979611     0.8730     0.3801     8.4956 3.1694e+02  0.000e+00
        664      5.519    19.5857  83.949878     0.8730     0.3982     8.4945 3.2324e+02  0.000e+00
        665      5.582    19.5785  84.009350     0.8730     0.3801     8.4807 3.5892e+02  0.000e+00
        666      5.653    19.5723  83.920148     0.8245     0.3801     8.4764 3.5255e+02  0.000e+00
        667      5.752    19.5688  84.009354     0.8245     0.3620     8.4768 3.0379e+02  0.000e+00
        668      5.853    19.5659  83.920151     0.8245     0.3801     8.4767 2.8911e+02  0.000e+00
        669      5.919    19.5631  83.890417     0.8245     0.3982     8.4848 2.8198e+02  0.000e+00
        670      5.949    19.5605  83.949888     0.8245     0.4163     8.4873 3.1361e+02  0.000e+00
        671      5.983    19.5588  83.979624     0.8245     0.4344     8.4811 3.5002e+02  0.000e+00
        672      6.050    19.5585  83.890420     0.8730     0.3982     8.4831 2.8050e+02  0.000e+00
        673      6.132    19.5544  83.830952     0.8730     0.3801     8.4825 2.6778e+02  0.000e+00
        674      6.211    19.5398  83.741753     0.8730     0.3982     8.4862 3.0761e+02  0.000e+00
        675      6.256    19.5145  83.682291     0.8245     0.4344     8.4904 2.9924e+02  0.000e+00
        676      6.262    19.4946  83.771500     0.8245     0.4344     8.4873 2.5448e+02  0.000e+00
        677      6.269    19.4871  83.741768     0.8245     0.4525     8.4899 2.7849e+02  0.000e+00
        678      6.306    19.4879  83.741768     0.8245     0.4344     8.4991 3.0093e+02  0.000e+00
        679      6.359    19.4887  83.682299     0.8730     0.4525     8.5066 2.5949e+02  0.000e+00
        680      6.424    19.4744  83.682303     0.9215     0.4344     8.5070 2.5659e+02  0.000e+00
        681      6.506    19.4519  83.593107     0.9215     0.4706     8.5053 2.6797e+02  0.000e+00
        682      6.580    19.4277  83.474177     0.9700     0.4887     8.5034 2.5470e+02  0.000e+00
        683      6.641    19.3887  83.414720     0.8730     0.5068     8.5136 2.4939e+02  0.000e+00
        684      6.686    19.3466  83.355264     0.9215     0.5792     8.5182 2.4912e+02  0.000e+00
        685      6.751    19.3118  83.206604     0.8730     0.5611     8.5149 2.4116e+02  0.000e+00
        686      6.841    19.2643  83.057950     0.8730     0.5611     8.5183 2.3397e+02  0.000e+00
        687      6.913    19.2067  82.879565     0.8730     0.5068     8.5302 2.3369e+02  0.000e+00
        688      6.981    19.1542  82.879580     0.8730     0.5611     8.5302 2.2781e+02  0.000e+00
        689      7.061    19.1212  82.820123     0.9215     0.6154     8.5278 2.2665e+02  0.000e+00
        690      7.136    19.0971  82.641732     0.9215     0.6335     8.5231 2.3176e+02  0.000e+00
        691      7.193    19.0723  82.612006     0.9700     0.6516     8.5285 2.1554e+02  0.000e+00
        692      7.255    19.0535  82.493081     1.0185     0.6516     8.5446 2.0755e+02  0.000e+00
        693      7.332    19.0366  82.374155     1.0185     0.8507     8.5658 2.0747e+02  0.000e+00
        694      7.393    19.0084  82.225501     1.0670     0.6697     8.5877 2.1130e+02  0.000e+00
        695      7.424    18.9789  82.284974     0.9700     0.7602     8.6008 2.1675e+02  0.000e+00
        696      7.443    18.9600  82.284979     1.0185     0.7602     8.6147 1.9373e+02  0.000e+00
        697      7.481    18.9503  82.344447     1.0185     0.7964     8.6232 1.8989e+02  0.000e+00
        698      7.537    18.9467  82.284984     0.9700     0.7783     8.6308 1.9943e+02  0.000e+00
        699      7.596    18.9368  82.195790     1.0185     0.7421     8.6331 2.0336e+02  0.000e+00
        700      7.652    18.9259  82.166061     1.0185     0.8145     8.6332 2.0329e+02  0.000e+00
        701      7.724    18.9177  82.166064     1.0670     0.9774     8.6280 1.9312e+02  0.000e+00
        702      7.781    18.9103  81.898478     1.0670     0.7783     8.6254 1.8349e+02  0.000e+00
        703      7.815    18.8942  81.690361     1.0185     0.6878     8.6213 1.8799e+02  0.000e+00
        704      7.852    18.8637  81.125478     1.0670     0.7783     8.6203 1.8829e+02  0.000e+00
        705      7.902    18.8003  78.004023     1.0185     0.6335     8.6210 1.8482e+02  0.000e+00
        706      7.952    18.5804  76.963697     0.9700     0.8688     8.6452 1.8004e+02  0.000e+00
        707      8.002    18.2981  76.993492     1.0185     0.7783     8.6399 1.7606e+02  0.000e+00
        708      8.046    18.1129  75.388481     0.9700     0.7783     8.6199 1.7737e+02  0.000e+00
        709      8.082    17.9367  74.734649     1.0185     0.7783     8.6349 1.8301e+02  0.000e+00
        710      8.125    17.7604  74.229440     1.0185     0.8145     8.6744 1.7818e+02  0.000e+00
        711      8.181    17.6141  73.100133     1.0670     0.9231     8.7274 1.6755e+02  0.000e+00
        712      8.245    17.4717  72.565238     1.2125     0.8688     8.8105 1.6032e+02  0.000e+00
        713      8.302    17.3497  72.149221     1.2610     0.7602     8.9033 1.6405e+02  0.000e+00
        714      8.360    17.2485  70.901159     1.2610     0.8507     8.9996 1.6573e+02  0.000e+00
        715      8.419    17.1400  69.890886     1.2610     0.8507     9.0977 1.6454e+02  0.000e+00
        716      8.498    17.0348  68.791527     1.5035     0.5973     9.1663 1.5953e+02  0.000e+00
        717      8.609    16.9324  68.642990     1.6490     0.5249     9.1995 1.5456e+02  0.000e+00
        718      8.703    16.8532  67.306012     1.5035     0.4706     9.2217 1.5107e+02  0.000e+00
        719      8.752    16.7479  65.256150     1.5520     0.5611     9.2465 1.5078e+02  0.000e+00
        720      8.787    16.5757  66.385084     1.6005     0.5068     9.2746 1.5105e+02  0.000e+00
        721      8.839    16.4989  65.969184     1.7945     0.5068     9.2528 1.5009e+02  0.000e+00
        722      8.887    16.4337  62.701585     1.9400     0.4706     9.2580 1.4580e+02  0.000e+00
        723      8.929    16.2215  62.404599     1.8915     0.4344     9.3034 1.4153e+02  0.000e+00
        724      8.978    16.0352  61.691785     2.0370     0.4344     9.3083 1.4059e+02  0.000e+00
        725      9.030    15.8854  60.622586     2.1340     0.4706     9.2997 1.4091e+02  0.000e+00
        726      9.104    15.7135  60.236523     2.2795     0.5611     9.2938 1.3788e+02  0.000e+00
        727      9.185    15.5615  59.850464     2.4735     0.5068     9.2914 1.3368e+02  0.000e+00
        728      9.242    15.4252  59.375314     2.4250     0.5430     9.2979 1.3267e+02  0.000e+00
        729      9.315    15.3007  59.315942     2.6190     0.4887     9.3117 1.3095e+02  0.000e+00
        730      9.395    15.2150  59.078376     2.8130     0.5430     9.3092 1.2581e+02  0.000e+00
        731      9.449    15.1179  59.078395     2.8130     0.5068     9.3316 1.2425e+02  0.000e+00
        732      9.504    15.0423  59.078410     2.8130     0.4525     9.3656 1.2451e+02  0.000e+00
        733      9.583    15.0010  58.632956     3.2980     0.4706     9.3893 1.2114e+02  0.000e+00
        734      9.661    14.9648  58.157816     3.9770     0.4525     9.4033 1.1317e+02  0.000e+00
        735      9.720    14.9148  58.009344     3.9285     0.5068     9.4125 1.2612e+02  0.000e+00
        736      9.780    14.8662  57.979657     3.9770     0.4344     9.4259 1.2928e+02  0.000e+00
        737      9.863    14.8301  57.534227     4.6075     0.4525     9.4238 9.7345e+01  0.000e+00
        738      9.938    14.7856  56.880947     4.5105     0.5068     9.4230 1.1005e+02  0.000e+00
        739      9.993    14.7330  56.494932     4.1710     0.4706     9.4146 1.0783e+02  0.000e+00
        740     10.040    14.6837  56.702800     4.3650     0.4887     9.4055 1.0554e+02  0.000e+00
        741     10.114    14.6564  56.346478     4.7045     0.4706     9.3850 9.9788e+01  0.000e+00
        742     10.210    14.6244  56.049549     5.1895     0.4706     9.3692 9.5061e+01  0.000e+00
        743     10.298    14.5835  55.693241     5.0925     0.4706     9.3485 9.1841e+01  0.000e+00
        744     10.373    14.5411  55.426017     5.2380     0.4887     9.3273 8.8776e+01  0.000e+00
        745     10.434    14.4989  55.188488     4.8985     0.4887     9.3165 8.6359e+01  0.000e+00
        746     10.488    14.4572  55.040036     4.9470     0.4706     9.2979 8.3919e+01  0.000e+00
        747     10.544    14.4205  55.129118     5.1410     0.4706     9.2722 8.2528e+01  0.000e+00
        748     10.590    14.3929  55.307276     5.2380     0.5068     9.2469 8.1132e+01  0.000e+00
        749     10.635    14.3740  55.247895     5.1410     0.3982     9.2175 7.9872e+01  0.000e+00
        750     10.694    14.3573  54.980672     5.4805     0.4525     9.1882 7.7547e+01  0.000e+00
        751     10.767    14.3377  54.772835     5.7715     0.5430     9.1713 7.4880e+01  0.000e+00
        752     10.844    14.3132  54.713457     6.2080     0.4706     9.1578 7.2139e+01  0.000e+00
        753     10.911    14.2895  54.713462     6.1595     0.4706     9.1462 6.9953e+01  0.000e+00
        754     10.963    14.2708  54.713465     6.3535     0.4344     9.1427 6.8299e+01  0.000e+00
        755     11.004    14.2566  54.713468     6.6930     0.5068     9.1506 6.6171e+01  0.000e+00
        756     11.060    14.2483  54.594705     6.8870     0.4887     9.1516 6.4323e+01  0.000e+00
        757     11.125    14.2367  54.327489     8.0995     0.5068     9.1469 6.2012e+01  0.000e+00
        758     11.198    14.2159  53.971208     8.4875     0.5430     9.1397 5.9250e+01  0.000e+00
        759     11.266    14.1883  53.585245     8.3420     0.5249     9.1243 5.6780e+01  0.000e+00
        760     11.315    14.1565  53.407115     8.4390     0.5611     9.1133 5.4904e+01  0.000e+00
        761     11.361    14.1275  53.407120     8.2935     0.5430     9.0986 5.3342e+01  0.000e+00
        762     11.433    14.1090  53.080544     8.4390     0.5792     9.1095 5.0519e+01  0.000e+00
        763     11.518    14.0833  52.605533     8.0995     0.5249     9.0729 4.7460e+01  0.000e+00
        764     11.586    14.0416  52.130537     9.0210     0.5611     9.0635 4.4869e+01  0.000e+00
        765     11.627    13.9962  52.071170     8.0995     0.5611     9.0526 4.4117e+01  0.000e+00
        766     11.669    13.9627  52.160238     8.8270     0.6335     9.0372 4.2877e+01  0.000e+00
        767     11.747    13.9494  52.130553     9.0210     0.5611     9.0101 3.9702e+01  0.000e+00
        768     11.874    13.9402  51.833683    10.4275     0.5611     8.9928 3.5866e+01  0.000e+00
        769     11.976    13.9211  51.804000     9.8455     0.5611     8.9825 3.2469e+01  0.000e+00
        770     12.007    13.8998  51.566510     8.2935     0.5068     8.9702 3.2901e+01  0.000e+00
        771     11.982    13.8816  51.833694     8.0025     0.4525     8.9795 3.4165e+01  0.000e+00
        772     11.977    13.8816  51.893068     9.5060     0.4887     8.9684 3.3403e+01  0.000e+00
        773     11.989    13.8903  51.833692     8.3420     0.5611     8.9648 3.3157e+01  0.000e+00
        774     11.983    13.8945  51.922753     8.0995     0.5249     8.9743 3.3515e+01  0.000e+00
        775     11.975    13.9006  52.160250     7.5175     0.5249     8.9727 3.3907e+01  0.000e+00
        776     11.991    13.9211  52.160246     7.9055     0.5249     8.9713 3.3192e+01  0.000e+00
        777     12.006    13.9368  52.011807     7.6630     0.5611     8.9778 3.2532e+01  0.000e+00
        778     12.014    13.9362  52.011807     7.8570     0.4887     8.9837 3.2613e+01  0.000e+00
        779     12.018    13.9334  52.011808     8.1965     0.5430     8.9857 3.2384e+01  0.000e+00
        780     12.011    13.9284  51.893060     7.5660     0.6154     8.9791 3.2595e+01  0.000e+00
        781     11.995    13.9208  51.893061     7.5175     0.5430     8.9717 3.3157e+01  0.000e+00
        782     11.992    13.9143  52.071185     8.2450     0.5430     8.9629 3.3052e+01  0.000e+00
        783     11.996    13.9226  52.219621     8.5845     0.5430     8.9572 3.2682e+01  0.000e+00
        784     11.995    13.9400  52.160243     7.7600     0.5792     8.9547 3.2843e+01  0.000e+00
        785     11.989    13.9446  51.982119     7.9540     0.5249     8.9535 3.2895e+01  0.000e+00
        786     11.987    13.9354  51.952433     8.2450     0.4887     8.9684 3.2907e+01  0.000e+00
        787     12.000    13.9286  52.011808     7.7115     0.5249     8.9886 3.2837e+01  0.000e+00
        788     12.057    13.9283  51.744626     8.4390     0.5430     8.9950 3.0831e+01  0.000e+00
        789     12.138    13.9118  51.358704    10.3790     0.5611     8.9985 2.8416e+01  0.000e+00
        790     12.192    13.8737  51.299338     7.9055     0.5430     9.0011 2.7509e+01  0.000e+00
        791     12.225    13.8427  51.358716     8.3420     0.5792     8.9967 2.6967e+01  0.000e+00
        792     12.278    13.8244  51.239974     9.4575     0.5611     8.9799 2.5483e+01  0.000e+00
        793     12.358    13.8137  51.239977     9.9910     0.5792     8.9600 2.3702e+01  0.000e+00
        794     12.456    13.8076  51.239978    10.8155     0.5611     8.9461 2.1614e+01  0.000e+00
        795     12.546    13.8042  51.239979    10.9125     0.5068     8.9395 2.0007e+01  0.000e+00
        796     12.612    13.8021  51.239980    10.8155     0.4706     8.9452 1.9003e+01  0.000e+00
        797     12.666    13.8001  51.239980    10.1365     0.4887     8.9481 1.8218e+01  0.000e+00
        798     12.714    13.7988  51.299353    10.1365     0.4887     8.9575 1.7567e+01  0.000e+00
        799     12.771    13.7977  51.239981     9.9425     0.5249     8.9635 1.6806e+01  0.000e+00
        800     12.826    13.7967  51.210296     9.7970     0.4887     8.9611 1.5866e+01  0.000e+00
        801     12.868    13.7956  51.239982     9.6515     0.4887     8.9600 1.5288e+01  0.000e+00
        802     12.905    13.7945  51.210296     9.7485     0.4887     8.9530 1.4804e+01  0.000e+00
        803     12.936    13.7932  51.239983     9.1665     0.5249     8.9566 1.4341e+01  0.000e+00
        804     12.976    13.7920  51.239983     9.4090     0.4887     8.9600 1.3901e+01  0.000e+00
        805     13.045    13.7914  51.210298    10.9125     0.4706     8.9613 1.3017e+01  0.000e+00
        806     13.140    13.7903  51.150926    10.8640     0.4887     8.9649 1.1816e+01  0.000e+00
        807     13.230    13.7880  51.091555    10.7670     0.5430     8.9661 1.0817e+01  0.000e+00
        808     13.298    13.7833  51.150928     9.8940     0.4344     8.9730 1.0124e+01  0.000e+00
        809     13.345    13.7782  51.091558     9.3605     0.4344     8.9691 9.7009e+00  0.000e+00
        810     13.372    13.7751  51.091558     9.3605     0.4887     8.9669 9.4615e+00  0.000e+00
        811     13.398    13.7728  51.091559     9.1665     0.4344     8.9647 9.2969e+00  0.000e+00
        812     13.439    13.7711  51.061873     9.8455     0.4525     8.9671 8.8796e+00  0.000e+00
        813     13.515    13.7691  51.091560    10.0880     0.4706     8.9691 8.2522e+00  0.000e+00
        814     13.602    13.7666  51.032189    11.5430     0.4344     8.9686 7.5364e+00  0.000e+00
        815     13.675    13.7621  50.913448     9.7970     0.5068     8.9713 7.0043e+00  0.000e+00
        816     13.724    13.7571  50.883763     9.8455     0.4525     8.9621 6.7848e+00  0.000e+00
        817     13.781    13.7530  50.883764    10.9610     0.5068     8.9603 6.4792e+00  0.000e+00
        818     13.870    13.7502  50.854079    11.1065     0.4887     8.9469 5.8371e+00  0.000e+00
        819     13.942    13.7465  50.616598     9.8455     0.4887     8.9476 5.4683e+00  0.000e+00
        820     13.983    13.7369  50.616600     9.3120     0.4706     8.9453 5.3477e+00  0.000e+00
        821     14.009    13.7256  50.497861     9.4575     0.4344     8.9443 5.2166e+00  0.000e+00
        822     14.045    13.7183  50.557233     9.3120     0.4706     8.9524 5.0237e+00  0.000e+00
        823     14.104    13.7135  50.201016     9.7485     0.4344     8.9520 4.7098e+00  0.000e+00
        824     14.164    13.7027  49.963544    10.0395     0.4344     8.9573 4.4660e+00  0.000e+00
        825     14.194    13.6873  49.844810     9.8940     0.3982     8.9574 4.4389e+00  0.000e+00
        826     14.207    13.6742  49.904180     9.6030     0.4344     8.9577 4.4223e+00  0.000e+00
        827     14.242    13.6666  49.785446     9.5060     0.3801     8.9576 4.2789e+00  0.000e+00
        828     14.284    13.6597  49.577661     9.8940     0.3801     8.9615 4.0965e+00  0.000e+00
        829     14.307    13.6495  49.577663     9.3120     0.3620     8.9719 3.9857e+00  0.000e+00
        830     14.300    13.6402  49.577664     9.0695     0.3620     8.9781 4.0447e+00  0.000e+00
        831     14.287    13.6372  49.815135     9.6030     0.4163     8.9932 4.1216e+00  0.000e+00
        832     14.299    13.6433  49.844818     9.7485     0.4344     8.9987 4.0447e+00  0.000e+00
        833     14.312    13.6493  49.755765     9.2150     0.3801     9.0128 3.9643e+00  0.000e+00
        834     14.312    13.6515  49.815132     9.3120     0.4163     9.0199 4.0115e+00  0.000e+00
        835     14.308    13.6532  49.755764     8.8270     0.3982     9.0250 4.0194e+00  0.000e+00
        836     14.303    13.6561  49.755764     9.2635     0.4525     9.0285 4.0230e+00  0.000e+00
        837     14.295    13.6573  49.815131     9.5060     0.4163     9.0220 4.0571e+00  0.000e+00
        838     14.292    13.6610  49.755763     9.1665     0.4525     9.0211 4.0760e+00  0.000e+00
        839     14.298    13.6619  49.755763     9.5060     0.4163     9.0103 4.0331e+00  0.000e+00
        840     14.306    13.6606  49.785447    10.0395     0.4344     9.0026 3.9849e+00  0.000e+00
        841     14.303    13.6584  49.755763     9.5060     0.3801     8.9871 4.0136e+00  0.000e+00
        842     14.303    13.6554  49.696396     9.7000     0.3801     8.9803 4.0367e+00  0.000e+00
        843     14.308    13.6531  49.755764    10.0880     0.4163     8.9769 4.0108e+00  0.000e+00
        844     14.359    13.6522  49.696397    12.3190     0.3801     8.9673 3.7685e+00  0.000e+00
        845     14.440    13.6482  49.369879    12.9010     0.3801     8.9620 3.4644e+00  0.000e+00
        846     14.531    13.6342  49.132417    13.8225     0.4344     8.9691 3.1917e+00  0.000e+00
        847     14.609    13.6176  48.865276    13.6770     0.3982     8.9790 2.9592e+00  0.000e+00
        848     14.672    13.6016  48.805914    14.2105     0.3982     8.9799 2.8136e+00  0.000e+00
        849     14.741    13.5887  48.716869    13.9195     0.4163     8.9804 2.5928e+00  0.000e+00
        850     14.826    13.5774  48.568460    14.9865     0.4706     8.9851 2.3522e+00  0.000e+00
        851     14.906    13.5642  48.331008    14.7440     0.4163     8.9930 2.1469e+00  0.000e+00
        852     14.973    13.5492  48.063877    14.2105     0.4163     9.0079 2.0588e+00  0.000e+00
        853     15.013    13.5342  48.123242    14.0165     0.3982     9.0239 1.9693e+00  0.000e+00
        854     15.040    13.5246  48.123244    12.7555     0.3982     9.0374 1.9123e+00  0.000e+00
        855     15.078    13.5210  48.004519    13.9195     0.3620     9.0506 1.8424e+00  0.000e+00
        856     15.133    13.5147  48.034202    14.7925     0.3982     9.0697 1.7242e+00  0.000e+00
        857     15.216    13.5057  47.945160    18.5270     0.3801     9.0864 1.5588e+00  0.000e+00
        858     15.325    13.4946  47.588992    21.1460     0.4163     9.0951 1.3531e+00  0.000e+00
        859     15.456    13.4725  46.817315    20.1760     0.3982     9.0905 1.1359e+00  0.000e+00
        860     15.557    13.4280  46.490851    19.1090     0.4163     9.0885 9.6527e-01  0.000e+00
        861     15.615    13.3866  46.194071    15.6655     0.3620     9.0799 9.0455e-01  0.000e+00
        862     15.646    13.3573  46.461183    15.1320     0.3801     9.0695 8.7645e-01  0.000e+00
        863     15.700    13.3371  46.728299    15.7140     0.3801     9.0572 8.0010e-01  0.000e+00
        864     15.773    13.3123  46.461191    16.1990     0.3620     9.0494 7.0710e-01  0.000e+00
        865     15.842    13.2756  46.016018    21.5825     0.3439     9.0535 6.4818e-01  0.000e+00
        866     15.903    13.2330  45.808278    18.2845     0.3801     9.0668 5.8843e-01  0.000e+00
        867     15.955    13.1981  45.689572    17.4600     0.3620     9.0688 5.3889e-01  0.000e+00
        868     15.998    13.1682  45.748932    21.6795     0.3801     9.0700 5.0076e-01  0.000e+00
        869     16.040    13.1413  45.867648    18.7695     0.3258     9.0617 4.6448e-01  0.000e+00
        870     16.094    13.1189  45.956686    18.3815     0.3077     9.0452 4.2567e-01  0.000e+00
        871     16.153    13.1029  46.223794    20.4185     0.3620     9.0198 3.7669e-01  0.000e+00
        872     16.221    13.0852  46.342512    23.7165     0.3439     9.0004 3.3669e-01  0.000e+00
        873     16.295    13.0580  46.283159    23.5710     0.3439     8.9888 2.9571e-01  0.000e+00
        874     16.371    13.0313  46.134770    23.7650     0.3801     8.9778 2.5114e-01  0.000e+00
        875     16.444    13.0131  45.927025    21.2430     0.3258     8.9689 2.1874e-01  0.000e+00
        876     16.528    13.0020  45.808315    20.1760     0.3982     8.9393 1.8483e-01  0.000e+00
        877     16.621    12.9946  45.778639    19.4485     0.3620     8.9157 1.5501e-01  0.000e+00
        878     16.703    12.9889  45.689606    18.8665     0.3439     8.8904 1.3975e-01  0.000e+00
        879     16.764    12.9833  45.689607    17.9450     0.3077     8.8720 1.2896e-01  0.000e+00
        880     16.804    12.9781  45.689608    17.7025     0.3258     8.8584 1.1596e-01  0.000e+00
        881     16.839    12.9743  45.630254    17.5570     0.3439     8.8524 1.1053e-01  0.000e+00
        882     16.882    12.9706  45.630254    20.3215     0.3258     8.8637 1.0095e-01  0.000e+00
        883     16.926    12.9666  45.541222    21.0975     0.3258     8.8798 8.5473e-02  0.000e+00
        884     16.982    12.9595  45.422514    21.6795     0.3077     8.9075 7.4049e-02  0.000e+00
        885     17.053    12.9472  45.363161    23.1345     0.3258     8.9334 5.4768e-02  0.000e+00
        886     17.138    12.9324  45.303809    23.9590     0.3258     8.9399 4.4014e-02  0.000e+00
        887     17.214    12.9172  45.214780    24.8805     0.3439     8.9563 3.4969e-02  0.000e+00
        888     17.285    12.9033  45.096075    20.9035     0.3258     8.9587 2.0040e-02  0.000e+00
        889     17.355    12.8890  44.947693    21.3885     0.3982     8.9564 8.1718e-03  0.000e+00
        890     17.420    12.8730  44.947696    19.0120     0.3077     8.9618 2.9274e-05  0.000e+00
        891     17.475    12.8579  44.858668    22.1160     0.3077     8.9500 1.0000e-12  0.000e+00
        892     17.520    12.8457  44.828994    22.5525     0.3439     8.9491 5.9128e-05  0.000e+00
        893     17.559    12.8357  44.828995    20.9520     0.3258     8.9471 8.8992e-05  0.000e+00
        894     17.627    12.8283  44.710291    24.4440     0.3077     8.9496 2.9274e-05  0.000e+00
        895     17.726    12.8194  44.561912    26.5295     0.3258     8.9420 1.1887e-04  0.000e+00
        896     17.830    12.8066  44.502562    27.9360     0.3077     8.9454 2.9274e-05  0.000e+00
        897     17.897    12.7914  44.443213    21.8250     0.3620     8.9493 1.0393e-04  0.000e+00
        898     17.933    12.7791  44.443214    18.9635     0.3077     8.9368 7.4059e-05  0.000e+00
        899     17.973    12.7709  44.383864    18.6725     0.2896     8.9329 2.9274e-05  0.000e+00
        900     18.034    12.7647  44.383865    23.1345     0.3077     8.9275 2.9274e-05  0.000e+00
        901     18.108    12.7597  44.354190    25.1230     0.3077     8.9266 1.4351e-05  0.000e+00
        902     18.188    12.7525  44.205813    26.5295     0.3258     8.9212 1.0000e-12  0.000e+00
        903     18.271    12.7417  44.116789    24.3470     0.3258     8.9202 1.4351e-05  0.000e+00
        904     18.355    12.7314  44.087115    22.7950     0.3439     8.9228 1.0000e-12  0.000e+00
        905     18.437    12.7192  43.938741    24.3470     0.3258     8.9308 1.6370e-04  0.000e+00
        906     18.519    12.7038  43.790368    22.6010     0.3077     8.9504 1.1887e-04  0.000e+00
        907     18.588    12.6898  43.849720    23.0860     0.3077     8.9511 2.9274e-05  0.000e+00
        908     18.647    12.6799  43.849722    22.0190     0.3439     8.9540 2.9274e-05  0.000e+00
        909     18.694    12.6736  43.849723    24.3470     0.2896     8.9451 2.9274e-05  0.000e+00
        910     18.749    12.6696  43.849724    24.3955     0.2896     8.9372 1.0000e-12  0.000e+00
        911     18.828    12.6671  43.968425    27.6450     0.3077     8.9299 1.0000e-12  0.000e+00
        912     18.924    12.6645  43.760700    30.7975     0.3077     8.9232 7.4059e-05  0.000e+00
        913     19.022    12.6597  44.057453    29.9730     0.3077     8.9137 7.4059e-05  0.000e+00
        914     19.090    12.6539  44.116805    24.8320     0.3439     8.9053 7.4059e-05  0.000e+00
        915     19.146    12.6493  44.087130    22.0675     0.3439     8.9072 2.9274e-05  0.000e+00
        916     19.198    12.6469  44.057455    24.0075     0.3077     8.9128 1.0393e-04  0.000e+00
        917     19.261    12.6450  44.087131    27.6935     0.3258     8.9170 1.0393e-04  0.000e+00
        918     19.334    12.6430  43.998106    29.3910     0.3258     8.9084 5.9128e-05  0.000e+00
        919     19.400    12.6381  43.849731    26.3840     0.3077     8.9060 1.4351e-05  0.000e+00
        920     19.471    12.6326  43.790382    27.7420     0.3077     8.8982 7.4059e-05  0.000e+00
        921     19.542    12.6284  43.701358    25.4625     0.3077     8.8930 1.4351e-05  0.000e+00
        922     19.591    12.6253  43.642010    23.8135     0.3077     8.8873 2.9274e-05  0.000e+00
        923     19.619    12.6223  43.642010    21.6795     0.2896     8.8722 2.9274e-05  0.000e+00
        924     19.635    12.6211  43.671685    22.2615     0.3258     8.8691 1.0000e-12  0.000e+00
        925     19.646    12.6210  43.642010    20.9035     0.2896     8.8597 7.4059e-05  0.000e+00
        926     19.651    12.6220  43.790385    18.9635     0.3077     8.8699 1.0000e-12  0.000e+00
        927     19.676    12.6260  43.612335    21.1460     0.2896     8.8736 2.9274e-05  0.000e+00
        928     19.737    12.6255  43.582661    27.0145     0.3077     8.8888 8.8992e-05  0.000e+00
        929     19.818    12.6216  43.582662    30.1670     0.3620     8.8978 1.0000e-12  0.000e+00
        930     19.889    12.6184  43.582662    26.3840     0.3620     8.9143 1.0000e-12  0.000e+00
        931     19.949    12.6166  43.582663    26.5780     0.3258     8.9177 2.9274e-05  0.000e+00
        932     20.020    12.6157  43.582663    23.5225     0.3620     8.9227 1.1887e-04  0.000e+00
        933     20.115    12.6146  43.760713    25.0260     0.3258     8.9228 1.0000e-12  0.000e+00
        934     20.205    12.6130  43.849738    27.1115     0.3258     8.9255 5.9128e-05  0.000e+00
        935     20.268    12.6108  43.849739    23.6680     0.3077     8.9219 2.9274e-05  0.000e+00
        936     20.310    12.6083  43.790389    22.9405     0.2896     8.9199 1.0000e-12  0.000e+00
        937     20.359    12.6062  43.790390    26.3840     0.2896     8.9156 2.9274e-05  0.000e+00
        938     20.410    12.6045  43.760715    27.0630     0.3258     8.9028 1.0000e-12  0.000e+00
        939     20.455    12.6034  43.701366    27.2570     0.3077     8.8957 1.0000e-12  0.000e+00
        940     20.491    12.6011  43.612342    26.3840     0.3258     8.8868 1.3381e-04  0.000e+00
        941     20.537    12.5989  43.493644    29.9730     0.3258     8.8736 2.9274e-05  0.000e+00
        942     20.604    12.5969  43.434296    28.2270     0.3439     8.8624 7.4059e-05  0.000e+00
        943     20.689    12.5939  43.434297    29.1970     0.3077     8.8563 1.0000e-12  0.000e+00
        944     20.785    12.5915  43.434297    30.7490     0.2896     8.8539 1.6370e-04  0.000e+00
        945     20.875    12.5898  43.315601    28.8090     0.3077     8.8571 4.4200e-05  0.000e+00
        946     20.939    12.5882  43.285927    23.5225     0.2896     8.8679 7.4059e-05  0.000e+00
        947     20.980    12.5872  43.315601    23.4740     0.2715     8.8781 1.4351e-05  0.000e+00
        948     21.031    12.5868  43.315602    28.0815     0.2896     8.8931 1.0000e-12  0.000e+00
        949     21.108    12.5860  43.315602    31.1370     0.2896     8.9024 2.9274e-05  0.000e+00
        950     21.204    12.5853  43.315603    33.9015     0.2715     8.9066 8.8992e-05  0.000e+00
        951     21.306    12.5846  43.226580    34.3865     0.3077     8.9153 1.3381e-04  0.000e+00
        952     21.385    12.5840  43.048537    31.8645     0.2715     8.9180 1.3381e-04  0.000e+00
        953     21.445    12.5840  42.989190    25.7050     0.2353     8.9228 2.9274e-05  0.000e+00
        954     21.497    12.5841  42.989190    27.9360     0.2715     8.9246 7.4059e-05  0.000e+00
        955     21.559    12.5842  42.929843    31.7675     0.2896     8.9242 1.0000e-12  0.000e+00
        956     21.624    12.5840  42.900169    30.9430     0.2715     8.9184 7.4059e-05  0.000e+00
        957     21.684    12.5840  42.900170    31.3310     0.2715     8.9245 2.9274e-05  0.000e+00
        958     21.739    12.5835  42.900170    30.5065     0.2715     8.9258 1.0000e-12  0.000e+00
        959     21.800    12.5833  42.900170    31.3795     0.2534     8.9233 8.8992e-05  0.000e+00
        960     21.867    12.5833  42.900170    32.9315     0.2715     8.9236 1.0000e-12  0.000e+00
        961     21.938    12.5830  42.900171    34.1925     0.2715     8.9312 1.0000e-12  0.000e+00
        962     22.002    12.5823  42.900171    30.4095     0.2896     8.9319 4.4200e-05  0.000e+00
        963     22.060    12.5810  42.900172    31.1855     0.2715     8.9352 4.4200e-05  0.000e+00
        964     22.116    12.5798  42.900172    31.4765     0.2715     8.9367 2.9274e-05  0.000e+00
        965     22.156    12.5790  42.900172    28.5180     0.2715     8.9360 4.4200e-05  0.000e+00
        966     22.186    12.5784  42.900172    26.3355     0.2715     8.9539 7.4059e-05  0.000e+00
        967     22.210    12.5778  42.900173    26.5295     0.2715     8.9468 7.4059e-05  0.000e+00
        968     22.240    12.5774  42.840826    27.0145     0.2715     8.9410 1.3381e-04  0.000e+00
        969     22.287    12.5771  42.900173    28.9545     0.2896     8.9287 7.4059e-05  0.000e+00
        970     22.344    12.5765  42.900173    32.0100     0.2715     8.9252 4.4200e-05  0.000e+00
        971     22.389    12.5756  42.900174    28.7120     0.2534     8.9145 2.9274e-05  0.000e+00
        972     22.404    12.5750  42.840827    26.9660     0.2715     8.9063 1.4351e-05  0.000e+00
        973     22.396    12.5749  42.900174    22.4070     0.2534     8.8987 2.9274e-05  0.000e+00
        974     22.395    12.5787  42.900173    24.6380     0.3258     8.8886 4.4200e-05  0.000e+00
        975     22.407    12.5828  42.900173    25.0745     0.2715     8.8949 7.4059e-05  0.000e+00
        976     22.418    12.5839  42.900173    24.6380     0.2534     8.9013 7.4059e-05  0.000e+00
        977     22.443    12.5823  42.840826    24.1530     0.2715     8.9039 7.4059e-05  0.000e+00
        978     22.497    12.5795  42.989195    33.4650     0.2896     8.9012 8.8992e-05  0.000e+00
        979     22.572    12.5771  42.959522    33.0285     0.2715     8.9042 1.4351e-05  0.000e+00
        980     22.639    12.5754  42.929848    28.6635     0.2896     8.9025 5.9128e-05  0.000e+00
        981     22.686    12.5746  42.900175    27.5480     0.2715     8.9161 2.9274e-05  0.000e+00
        982     22.726    12.5740  42.929849    29.1970     0.2715     8.9166 4.4200e-05  0.000e+00
        983     22.781    12.5742  42.900175    33.2710     0.2896     8.9157 1.0000e-12  0.000e+00
        984     22.845    12.5740  42.989197    31.7675     0.2896     8.9131 4.4200e-05  0.000e+00
        985     22.907    12.5735  42.929850    30.0700     0.2715     8.9092 1.3381e-04  0.000e+00
        986     22.963    12.5731  42.900176    31.9615     0.3077     8.9100 1.0000e-12  0.000e+00
        987     23.034    12.5730  42.959524    32.0100     0.2715     8.8982 1.0000e-12  0.000e+00
        988     23.114    12.5728  43.048546    32.5920     0.2715     8.9008 7.4059e-05  0.000e+00
        989     23.197    12.5721  43.048546    33.6590     0.2715     8.8970 1.0000e-12  0.000e+00
        990     23.267    12.5713  43.048547    32.9800     0.2715     8.9061 1.0393e-04  0.000e+00
        991     23.325    12.5703  43.048547    31.0400     0.2715     8.9097 1.0000e-12  0.000e+00
        992     23.373    12.5696  43.048547    30.7975     0.2715     8.9117 5.9128e-05  0.000e+00
        993     23.416    12.5689  43.048547    31.1855     0.3077     8.9132 1.0393e-04  0.000e+00
        994     23.457    12.5686  43.048548    30.8945     0.2534     8.9130 8.8992e-05  0.000e+00
        995     23.492    12.5688  43.078222    31.2340     0.2896     8.9079 5.9128e-05  0.000e+00
        996     23.529    12.5679  43.167244    29.9245     0.2715     8.9044 8.8992e-05  0.000e+00
        997     23.567    12.5672  43.048548    30.3125     0.2896     8.8944 1.0393e-04  0.000e+00
        998     23.612    12.5662  43.078223    31.2340     0.2715     8.8872 1.0000e-12  0.000e+00
        999     23.665    12.5652  43.107897    30.5065     0.2534     8.8799 2.9274e-05  0.000e+00
       1000     23.721    12.5634  43.167245    33.0285     0.2534     8.8815 1.0393e-04  0.000e+00
       1001     23.768    12.5618  43.137572    31.4280     0.2715     8.8786 1.7865e-04  0.000e+00
       1002     23.793    12.5607  43.167246    29.0030     0.2715     8.8795 1.0393e-04  0.000e+00
       1003     23.808    12.5601  43.078224    26.9175     0.2896     8.8806 7.4059e-05  0.000e+00
       1004     23.837    12.5605  43.167246    27.8875     0.2896     8.8663 2.9274e-05  0.000e+00
       1005     23.870    12.5600  43.256269    28.6635     0.2534     8.8577 1.0393e-04  0.000e+00
       1006     23.901    12.5555  43.315618    25.9475     0.2534     8.8519 5.9128e-05  0.000e+00
       1007     23.924    12.5495  43.434316    24.7350     0.2534     8.8437 5.9128e-05  0.000e+00
       1008     23.945    12.5442  43.434317    26.2385     0.2715     8.8421 1.3381e-04  0.000e+00
       1009     23.976    12.5417  43.434318    29.5365     0.2353     8.8396 7.4059e-05  0.000e+00
       1010     24.011    12.5398  43.256272    29.6335     0.2715     8.8416 5.9128e-05  0.000e+00
       1011     24.035    12.5379  43.256272    27.5965     0.2896     8.8336 4.4200e-05  0.000e+00
       1012     24.034    12.5364  43.285947    24.4440     0.2534     8.8365 1.0000e-12  0.000e+00
       1013     24.024    12.5363  43.315621    22.6010     0.2353     8.8320 1.0000e-12  0.000e+00
       1014     24.027    12.5402  43.315621    24.2500     0.2353     8.8292 5.9128e-05  0.000e+00
       1015     24.040    12.5447  43.374969    24.7835     0.2715     8.8262 7.4059e-05  0.000e+00
       1016     24.038    12.5462  43.315620    22.6010     0.2534     8.8253 2.9274e-05  0.000e+00
       1017     24.030    12.5461  43.285946    21.9220     0.2534     8.8237 1.1887e-04  0.000e+00
       1018     24.027    12.5475  43.256271    26.2385     0.2715     8.8215 7.4059e-05  0.000e+00
       1019     24.036    12.5490  43.256271    25.4140     0.2715     8.8179 2.9274e-05  0.000e+00
       1020     24.041    12.5504  43.315619    25.8990     0.2534     8.8185 7.4059e-05  0.000e+00
       1021     24.041    12.5505  43.256271    25.4625     0.2534     8.8109 1.4351e-05  0.000e+00
       1022     24.045    12.5490  43.285945    25.4625     0.2353     8.8096 4.4200e-05  0.000e+00
       1023     24.064    12.5464  43.315620    27.5480     0.2534     8.8135 5.9128e-05  0.000e+00
       1024     24.110    12.5449  43.315620    30.7975     0.2896     8.8194 4.4200e-05  0.000e+00
       1025     24.181    12.5417  43.226598    35.3080     0.2715     8.8311 7.4059e-05  0.000e+00
       1026     24.254    12.5382  43.167251    34.9685     0.2896     8.8446 2.9274e-05  0.000e+00
       1027     24.312    12.5356  43.167252    32.1070     0.2896     8.8557 8.8992e-05  0.000e+00
       1028     24.349    12.5338  43.137578    28.4210     0.2353     8.8585 2.9274e-05  0.000e+00
       1029     24.369    12.5329  43.167252    26.4810     0.2534     8.8679 1.0000e-12  0.000e+00
       1030     24.395    12.5330  43.196926    27.6935     0.2534     8.8699 2.9274e-05  0.000e+00
       1031     24.433    12.5344  43.226600    29.0515     0.2534     8.8621 8.8992e-05  0.000e+00
       1032     24.486    12.5345  43.167253    28.5665     0.2353     8.8468 7.4059e-05  0.000e+00
       1033     24.528    12.5329  43.137579    32.4465     0.2534     8.8395 5.9128e-05  0.000e+00
       1034     24.549    12.5317  43.167253    28.4695     0.2534     8.8355 1.0000e-12  0.000e+00
       1035     24.549    12.5309  43.167253    23.8620     0.2534     8.8361 7.4059e-05  0.000e+00
       1036     24.550    12.5309  43.196927    24.5410     0.2353     8.8391 4.4200e-05  0.000e+00
       1037     24.561    12.5337  43.196927    26.6265     0.2534     8.8492 7.4059e-05  0.000e+00
       1038     24.566    12.5374  43.167252    24.3470     0.2353     8.8593 4.4200e-05  0.000e+00
       1039     24.562    12.5388  43.226600    22.6495     0.2534     8.8628 1.0000e-12  0.000e+00
       1040     24.567    12.5403  43.196926    21.9220     0.2353     8.8669 1.0000e-12  0.000e+00
       1041     24.591    12.5426  43.196926    24.7835     0.2534     8.8649 1.0000e-12  0.000e+00
       1042     24.607    12.5422  43.137578    24.1045     0.2534     8.8554 1.0000e-12  0.000e+00
       1043     24.594    12.5406  43.196926    22.0190     0.2534     8.8508 2.9274e-05  0.000e+00
       1044     24.576    12.5400  43.137578    21.5340     0.2172     8.8459 1.0000e-12  0.000e+00
       1045     24.569    12.5409  43.196926    25.7535     0.2534     8.8368 2.9274e-05  0.000e+00
       1046     24.588    12.5429  43.196926    24.7835     0.2534     8.8412 4.4200e-05  0.000e+00
       1047     24.600    12.5440  43.196926    24.0075     0.2353     8.8446 2.9274e-05  0.000e+00
       1048     24.597    12.5420  43.196926    23.4740     0.2534     8.8457 8.8992e-05  0.000e+00
       1049     24.589    12.5401  43.167252    22.7950     0.2353     8.8465 1.0000e-12  0.000e+00
       1050     24.593    12.5411  43.196926    26.2385     0.2715     8.8485 2.9274e-05  0.000e+00
       1051     24.600    12.5425  43.167252    25.5595     0.2715     8.8492 4.4200e-05  0.000e+00
       1052     24.601    12.5425  43.137578    23.5225     0.2353     8.8551 1.4351e-05  0.000e+00
       1053     24.588    12.5413  43.167252    22.0190     0.2172     8.8600 2.9274e-05  0.000e+00
       1054     24.577    12.5412  43.196926    21.6795     0.2353     8.8594 4.4200e-05  0.000e+00
       1055     24.578    12.5409  43.196926    25.8505     0.2353     8.8556 1.4351e-05  0.000e+00
       1056     24.592    12.5397  43.167252    25.4625     0.2715     8.8526 1.0000e-12  0.000e+00
       1057     24.600    12.5400  43.167252    24.7835     0.2715     8.8557 8.8992e-05  0.000e+00
       1058     24.597    12.5388  43.137578    23.5225     0.2353     8.8453 5.9128e-05  0.000e+00
       1059     24.583    12.5379  43.167252    23.5710     0.2353     8.8386 1.6370e-04  0.000e+00
       1060     24.577    12.5384  43.196926    23.2800     0.2353     8.8355 1.0393e-04  0.000e+00
       1061     24.584    12.5394  43.137578    25.1715     0.2715     8.8344 8.8992e-05  0.000e+00
       1062     24.597    12.5402  43.196926    25.1715     0.2353     8.8395 1.4351e-05  0.000e+00
       1063     24.599    12.5401  43.196926    25.9960     0.2534     8.8516 4.4200e-05  0.000e+00
       1064     24.594    12.5382  43.196926    24.9290     0.2534     8.8512 1.0000e-12  0.000e+00
       1065     24.588    12.5382  43.196926    23.5225     0.2353     8.8465 2.9274e-05  0.000e+00
       1066     24.587    12.5398  43.196926    23.2315     0.2353     8.8444 1.0000e-12  0.000e+00
       1067     24.598    12.5413  43.196926    25.8990     0.2172     8.8391 1.0000e-12  0.000e+00
       1068     24.605    12.5408  43.167252    24.2015     0.2353     8.8361 1.0000e-12  0.000e+00
       1069     24.596    12.5397  43.196926    22.1160     0.2172     8.8323 2.9274e-05  0.000e+00
       1070     24.582    12.5392  43.196926    22.8920     0.2353     8.8277 7.4059e-05  0.000e+00
       1071     24.581    12.5396  43.196926    23.6195     0.2353     8.8288 5.9128e-05  0.000e+00
       1072     24.592    12.5400  43.196926    26.5295     0.2353     8.8316 4.4200e-05  0.000e+00
       1073     24.605    12.5400  43.196926    25.7535     0.2353     8.8376 4.4200e-05  0.000e+00
       1074     24.605    12.5390  43.196926    25.1715     0.2534     8.8460 1.0000e-12  0.000e+00
       1075     24.586    12.5386  43.167252    25.1715     0.2534     8.8476 2.9274e-05  0.000e+00
       1076     24.572    12.5398  43.167252    25.1715     0.2534     8.8530 5.9128e-05  0.000e+00
       1077     24.539    12.5414  43.196926    22.5040     0.2715     8.8638 1.0000e-12  0.000e+00
       1078     24.456    12.5434  43.196925    22.4070     0.2715     8.8628 5.9128e-05  0.000e+00
       1079     24.326    12.5476  43.196924    24.2015     0.2172     8.8675 7.4059e-05  0.000e+00
       1080     24.198    12.5544  43.167249    24.1045     0.2172     8.8681 2.9274e-05  0.000e+00
       1081     24.092    12.5596  43.226596    24.3470     0.2534     8.8641 1.1887e-04  0.000e+00
       1082     23.992    12.5617  43.256269    23.3285     0.2534     8.8560 7.4059e-05  0.000e+00
       1083     23.867    12.5639  43.196920    23.2315     0.2172     8.8528 5.9128e-05  0.000e+00
       1084     23.724    12.5644  43.285942    24.2985     0.2353     8.8441 1.0000e-12  0.000e+00
       1085     23.588    12.5633  43.256267    24.3470     0.2534     8.8314 7.4059e-05  0.000e+00
       1086     23.470    12.5637  43.256267    23.7650     0.2534     8.8254 5.9128e-05  0.000e+00
       1087     23.357    12.5621  43.285940    24.2500     0.2353     8.8216 8.8992e-05  0.000e+00
       1088     23.247    12.5598  43.256266    23.9105     0.2534     8.8226 4.4200e-05  0.000e+00
       1089     23.137    12.5561  43.285940    24.7350     0.2172     8.8309 5.9128e-05  0.000e+00
       1090     23.020    12.5541  43.256266    23.8135     0.2715     8.8354 1.0393e-04  0.000e+00
       1091     22.894    12.5537  43.256266    23.9105     0.2715     8.8443 7.4059e-05  0.000e+00
       1092     22.774    12.5542  43.137569    24.2500     0.2534     8.8486 7.4059e-05  0.000e+00
       1093     22.657    12.5554  43.196916    25.0260     0.2715     8.8609 4.4200e-05  0.000e+00
       1094     22.539    12.5573  43.167241    26.0930     0.2896     8.8577 1.0000e-12  0.000e+00
       1095     22.419    12.5594  43.078219    25.8505     0.2534     8.8543 2.9274e-05  0.000e+00
       1096     22.285    12.5605  43.167240    24.1045     0.2715     8.8557 1.0393e-04  0.000e+00
       1097     22.140    12.5619  43.107891    24.0075     0.2715     8.8556 1.4351e-05  0.000e+00
       1098     22.004    12.5641  43.048542    25.0745     0.2534     8.8545 1.0393e-04  0.000e+00
       1099     21.880    12.5664  43.048542    24.8320     0.2715     8.8593 4.4200e-05  0.000e+00
       1100     21.770    12.5686  43.048541    25.9475     0.2715     8.8676 1.0000e-12  0.000e+00
       1101     21.661    12.5703  42.989192    24.9290     0.2896     8.8761 5.9128e-05  0.000e+00
       1102     21.558    12.5717  42.989192    24.8320     0.2896     8.8836 1.3381e-04  0.000e+00
       1103     21.446    12.5727  42.989191    24.3955     0.2896     8.8994 1.0000e-12  0.000e+00
       1104     21.322    12.5743  42.929843    24.1045     0.2715     8.9048 7.4059e-05  0.000e+00
       1105     21.190    12.5755  42.989190    24.9775     0.2534     8.9200 2.9274e-05  0.000e+00
       1106     21.061    12.5762  42.900168    24.0560     0.2715     8.9266 5.9128e-05  0.000e+00
       1107     20.940    12.5774  42.900167    22.2130     0.3077     8.9303 1.0393e-04  0.000e+00
       1108     20.831    12.5784  42.929840    23.8620     0.2715     8.9297 1.0393e-04  0.000e+00
       1109     20.718    12.5795  42.900166    22.0190     0.2715     8.9267 1.0000e-12  0.000e+00
       1110     20.597    12.5803  42.929839    23.9590     0.2896     8.9259 5.9128e-05  0.000e+00
       1111     20.471    12.5812  42.959512    23.1830     0.3258     8.9225 4.4200e-05  0.000e+00
       1112     20.348    12.5826  43.048533    22.4555     0.3077     8.9215 1.1887e-04  0.000e+00
       1113     20.234    12.5845  43.048532    22.4070     0.2896     8.9223 1.0000e-12  0.000e+00
       1114     20.128    12.5865  43.078205    21.6795     0.2534     8.9263 7.4059e-05  0.000e+00
       1115     20.016    12.5882  43.107879    22.0675     0.2896     8.9300 1.0000e-12  0.000e+00
       1116     19.890    12.5898  43.196900    22.5525     0.3077     8.9331 7.4059e-05  0.000e+00
       1117     19.766    12.5906  43.315596    22.1645     0.3077     8.9313 4.4200e-05  0.000e+00
       1118     19.642    12.5919  43.374944    22.3100     0.2896     8.9310 7.4059e-05  0.000e+00
       1119     19.521    12.5938  43.374943    23.0375     0.2896     8.9266 1.4351e-05  0.000e+00
       1120     19.410    12.5959  43.434291    21.4370     0.3077     8.9213 1.3381e-04  0.000e+00
       1121     19.307    12.5980  43.493639    22.1645     0.3077     8.9041 4.4200e-05  0.000e+00
       1122     19.201    12.5997  43.463964    20.7095     0.2896     8.9001 1.4351e-05  0.000e+00
       1123     19.088    12.6017  43.523312    20.6610     0.2896     8.8945 2.9274e-05  0.000e+00
       1124     18.977    12.6032  43.582661    22.3100     0.2896     8.8918 7.4059e-05  0.000e+00
       1125     18.860    12.6053  43.612335    20.6610     0.2896     8.8870 1.0000e-12  0.000e+00
       1126     18.754    12.6077  43.701358    20.9520     0.2715     8.8797 4.4200e-05  0.000e+00
       1127     18.642    12.6096  43.642008    20.5155     0.2896     8.8817 1.4351e-05  0.000e+00
       1128     18.521    12.6115  43.701357    20.2730     0.2715     8.8852 4.4200e-05  0.000e+00
       1129     18.402    12.6142  43.849730    20.0790     0.3077     8.8856 2.9274e-05  0.000e+00
       1130     18.286    12.6181  43.790379    19.0120     0.2896     8.8884 7.4059e-05  0.000e+00
       1131     18.165    12.6218  43.760703    19.7395     0.2896     8.8828 1.0000e-12  0.000e+00
       1132     18.055    12.6246  43.909078    20.6125     0.3258     8.8832 2.9274e-05  0.000e+00
       1133     17.943    12.6284  43.849726    19.0605     0.3258     8.8794 1.0393e-04  0.000e+00
       1134     17.822    12.6322  43.909076    19.4000     0.3077     8.8726 7.4059e-05  0.000e+00
       1135     17.700    12.6371  44.027775    20.4670     0.3439     8.8683 7.4059e-05  0.000e+00
       1136     17.583    12.6464  43.998098    19.5940     0.3258     8.8688 5.9128e-05  0.000e+00
       1137     17.470    12.6553  44.027772    18.7210     0.3077     8.8738 7.4059e-05  0.000e+00
       1138     17.358    12.6616  44.027770    18.2845     0.3077     8.8816 1.4581e-02  0.000e+00
       1139     17.244    12.6687  44.146470    18.6725     0.3258     8.8888 2.8934e-02  0.000e+00
       1140     17.119    12.6770  44.116793    18.9150     0.3258     8.8916 5.0467e-02  0.000e+00
       1141     16.991    12.6851  44.235494    18.7210     0.2896     8.8941 7.0296e-02  0.000e+00
       1142     16.867    12.6971  44.294843    18.0420     0.3077     8.8973 1.0203e-01  0.000e+00
       1143     16.747    12.7095  44.383868    16.9750     0.2896     8.9024 1.3498e-01  0.000e+00
       1144     16.633    12.7235  44.591597    18.3815     0.3258     8.8959 1.7225e-01  0.000e+00
       1145     16.520    12.7394  44.621271    17.8480     0.2896     8.8977 2.1757e-01  0.000e+00
       1146     16.397    12.7554  44.710296    18.0905     0.3258     8.9033 2.7465e-01  0.000e+00
       1147     16.271    12.7701  44.858676    17.7995     0.3439     8.9038 3.5169e-01  0.000e+00
       1148     16.150    12.7874  44.947703    17.2175     0.3439     8.9106 4.2639e-01  0.000e+00
       1149     16.033    12.8032  44.947700    16.0535     0.3439     8.9193 5.2128e-01  0.000e+00
       1150     15.920    12.8146  45.007051    17.1205     0.3439     8.9286 6.2039e-01  0.000e+00
       1151     15.812    12.8238  45.096080    17.6055     0.3620     8.9358 7.2412e-01  0.000e+00
       1152     15.697    12.8331  45.096078    16.8780     0.3258     8.9390 8.7224e-01  0.000e+00
       1153     15.564    12.8421  45.303816    16.2960     0.3077     8.9358 1.0527e+00  0.000e+00
       1154     15.443    12.8596  45.481877    17.0720     0.3258     8.9323 1.2294e+00  0.000e+00
       1155     15.329    12.8851  45.481872    16.0050     0.3258     8.9267 1.4232e+00  0.000e+00
       1156     15.216    12.9045  45.570902    17.5570     0.3258     8.9267 1.6489e+00  0.000e+00
       1157     15.112    12.9219  45.541221    16.3930     0.3258     8.9269 1.7486e+00  0.000e+00
       1158     15.011    12.9322  45.630252    15.8110     0.3439     8.9211 1.9524e+00  0.000e+00
       1159     14.905    12.9455  45.808316    15.7140     0.3439     8.9222 2.2048e+00  0.000e+00
       1160     14.794    12.9725  46.016059    15.4715     0.3439     8.9238 2.5035e+00  0.000e+00
       1161     14.682    13.0129  46.401873    14.6955     0.3620     8.9212 2.7984e+00  0.000e+00
       1162     14.572    13.0574  46.401866    14.3560     0.3439     8.9219 3.1127e+00  0.000e+00
       1163     14.464    13.0905  46.639293    14.0165     0.3439     8.9300 3.4408e+00  0.000e+00
       1164     14.362    13.1324  46.995440    13.5315     0.3801     8.9376 3.7355e+00  0.000e+00
       1165     14.255    13.1807  46.995432    13.1435     0.3620     8.9446 4.1542e+00  0.000e+00
       1166     14.145    13.2191  47.410946    12.4645     0.3982     8.9674 4.5991e+00  0.000e+00
       1167     14.043    13.2584  47.529661    11.4945     0.3620     8.9822 5.0201e+00  0.000e+00
       1168     13.935    13.2912  47.529656    10.8640     0.3620     9.0065 5.5936e+00  0.000e+00
       1169     13.827    13.3186  48.212315    11.0580     0.3982     9.0261 6.1961e+00  0.000e+00
       1170     13.719    13.3624  48.390398    10.5245     0.3620     9.0328 6.8345e+00  0.000e+00
       1171     13.604    13.4019  48.657529    10.2335     0.3801     9.0374 7.6687e+00  0.000e+00
       1172     13.495    13.4372  49.577693    10.0880     0.3801     9.0444 8.5049e+00  0.000e+00
       1173     13.389    13.4890  49.458950     9.9910     0.4344     9.0472 9.3448e+00  0.000e+00
       1174     13.281    13.5284  49.607361     9.6515     0.4525     9.0529 1.0406e+01  0.000e+00
       1175     13.176    13.5539  50.290092    10.1365     0.4163     9.0484 1.1405e+01  0.000e+00
       1176     13.079    13.5882  50.230716     9.7970     0.4163     9.0444 1.2449e+01  0.000e+00
       1177     12.978    13.6124  50.290081     9.4575     0.4706     9.0346 1.3808e+01  0.000e+00
       1178     12.879    13.6296  50.557242     9.6030     0.4887     9.0239 1.5039e+01  0.000e+00
       1179     12.781    13.6489  50.349444     9.3605     0.4706     9.0096 1.6497e+01  0.000e+00
       1180     12.676    13.6570  50.705662     9.6030     0.3801     9.0005 1.8506e+01  0.000e+00
       1181     12.572    13.6695  50.646289     9.5060     0.3982     8.9821 2.0131e+01  0.000e+00
       1182     12.468    13.6817  50.705657     9.4575     0.4344     8.9634 2.2084e+01  0.000e+00
       1183     12.359    13.6896  50.943139     9.7970     0.4344     8.9450 2.3300e+01  0.000e+00
       1184     12.253    13.7014  50.943136     9.7000     0.4344     8.9301 2.5573e+01  0.000e+00
       1185     12.147    13.7124  50.913448     9.4575     0.4163     8.9184 2.7831e+01  0.000e+00
       1186     12.041    13.7183  50.972818     9.5060     0.4344     8.9086 3.0809e+01  0.000e+00
       1187     11.944    13.7248  51.091560     9.7000     0.4344     8.8975 3.3433e+01  0.000e+00
       1188     11.849    13.7339  51.061872     9.3605     0.5068     8.8846 3.5911e+01  0.000e+00
       1189     11.738    13.7393  51.091556     9.1180     0.4887     8.8895 3.9555e+01  0.000e+00
       1190     11.620    13.7452  51.210298     9.0695     0.4525     8.8907 4.3233e+01  0.000e+00
       1191     11.500    13.7539  51.210296     9.0695     0.4706     8.8894 4.7193e+01  0.000e+00
       1192     11.385    13.7613  51.477471     8.7300     0.5068     8.8867 5.1634e+01  0.000e+00
       1193     11.285    13.7756  51.388409     8.0995     0.5430     8.8898 5.5262e+01  0.000e+00
       1194     11.195    13.7863  51.418093     8.1965     0.5430     8.8954 5.8628e+01  0.000e+00
       1195     11.082    13.7906  51.418091     8.2935     0.5249     8.9027 6.2990e+01  0.000e+00
       1196     10.963    13.7948  51.863390     8.2935     0.4887     8.9107 6.7570e+01  0.000e+00
       1197     10.851    13.8169  52.130571     8.0995     0.5249     8.9132 7.1232e+01  0.000e+00
       1198     10.749    13.8421  52.130566     7.8570     0.5068     8.9248 7.4735e+01  0.000e+00
       1199     10.645    13.8609  52.071188     7.4205     0.4887     8.9297 7.9173e+01  0.000e+00
       1200     10.544    13.8754  52.486812     7.1295     0.5068     8.9342 8.3492e+01  0.000e+00
       1201     10.431    13.8966  52.932132     6.8870     0.5068     8.9428 8.8340e+01  0.000e+00
       1202     10.317    13.9315  53.674354     6.4505     0.4706     8.9467 9.2896e+01  0.000e+00
       1203     10.217    13.9866  53.793103     6.4020     0.4706     8.9502 9.7054e+01  0.000e+00
       1204     10.123    14.0369  53.793094     5.4805     0.4887     8.9658 1.0170e+02  0.000e+00
       1205     10.019    14.0656  53.644640     5.4320     0.4887     8.9883 9.4627e+01  0.000e+00
       1206      9.922    14.0737  53.941537     5.2865     0.4706     9.0096 1.0298e+02  0.000e+00
       1207      9.836    14.0896  54.089985     5.0925     0.4887     9.0305 1.2349e+02  0.000e+00
       1208      9.747    14.1094  54.119671     4.7530     0.5068     9.0429 1.1046e+02  0.000e+00
       1209      9.651    14.1244  54.119668     4.8500     0.5068     9.0600 1.1604e+02  0.000e+00
       1210      9.547    14.1346  54.535335     4.7530     0.4706     9.0693 1.1897e+02  0.000e+00
       1211      9.444    14.1651  55.099466     4.3165     0.4706     9.0632 1.2178e+02  0.000e+00
       1212      9.335    14.2233  55.752687     4.0740     0.4706     9.0522 1.2827e+02  0.000e+00
       1213      9.222    14.2976  55.901138     3.7830     0.4525     9.0425 1.3483e+02  0.000e+00
       1214      9.102    14.3548  56.227753     3.5405     0.4887     9.0444 1.3488e+02  0.000e+00
       1215      8.966    14.4005  56.732540     3.2980     0.4887     9.0569 1.3585e+02  0.000e+00
       1216      8.826    14.4635  57.474899     2.8615     0.5068     9.0601 1.4339e+02  0.000e+00
       1217      8.695    14.5729  58.246974     2.7160     0.4887     9.0621 1.5198e+02  0.000e+00
       1218      8.563    14.6938  58.484524     2.4735     0.4344     9.0697 1.5278e+02  0.000e+00
       1219      8.434    14.7920  59.523924     2.3280     0.4525     9.0939 1.5316e+02  0.000e+00
       1220      8.309    14.9170  59.553597     2.0855     0.5068     9.1227 1.6188e+02  0.000e+00
       1221      8.189    15.0106  61.365270     1.9400     0.5430     9.1488 1.7148e+02  0.000e+00
       1222      8.062    15.1640  61.365239     1.8430     0.5068     9.1614 1.8188e+02  0.000e+00
       1223      7.923    15.2938  62.939438     1.6490     0.6154     9.1840 1.7985e+02  0.000e+00
       1224      7.785    15.4576  65.731737     1.4550     0.7240     9.2067 1.8048e+02  0.000e+00
       1225      7.662    15.7146  66.296136     1.2125     0.7602     9.1933 1.8909e+02  0.000e+00
       1226      7.534    15.9300  65.375145     1.0670     0.7059     9.2117 2.1063e+02  0.000e+00
       1227      7.403    16.0190  67.098217     1.1155     0.6697     9.2488 2.0824e+02  0.000e+00
       1228      7.268    16.1282  68.554025     1.1155     0.7421     9.2460 2.0864e+02  0.000e+00
       1229      7.126    16.2949  71.376824     1.1155     0.7602     9.2202 2.1584e+02  0.000e+00
       1230      6.994    16.5691  74.348601     1.0185     0.8326     9.1761 2.3787e+02  0.000e+00
       1231      6.869    16.9473  75.061817     0.9700     0.7602     9.1186 2.4132e+02  0.000e+00
       1232      6.738    17.2307  74.853696     0.9700     0.7783     9.1077 2.2861e+02  0.000e+00
       1233      6.595    17.4137  78.628622     0.9700     0.6516     9.1123 2.5618e+02  0.000e+00
       1234      6.457    17.7023  78.955547     0.9215     0.7421     9.0535 2.7363e+02  0.000e+00
       1235      6.321    17.9396  79.550044     0.9215     0.5973     9.0286 2.8050e+02  0.000e+00
       1236      6.195    18.1105  80.352680     0.9700     0.5792     8.9996 2.7883e+02  0.000e+00
       1237      6.066    18.2645  79.995888     0.8730     0.6516     8.9427 2.7474e+02  0.000e+00
       1238      5.931    18.3572  81.185059     0.9215     0.5430     8.8732 2.9294e+02  0.000e+00
       1239      5.793    18.4650  81.393146     0.8730     0.4706     8.7680 3.1273e+02  0.000e+00
       1240      5.662    18.5744  82.166139     0.8245     0.5068     8.6569 3.1218e+02  0.000e+00
       1241      5.545    18.6992  82.344499     0.8245     0.4525     8.5677 3.2380e+02  0.000e+00
       1242      5.419    18.8000  82.166077     0.8730     0.4706     8.5017 3.3990e+02  0.000e+00
       1243      5.278    18.8594  82.760713     1.4550     0.4525     8.4417 3.4775e+02  0.000e+00
       1244      5.139    18.9494  82.998554     0.8245     0.4706     8.3810 3.6631e+02  0.000e+00
       1245      5.012    19.0500  83.087727     0.8245     0.4344     8.3488 3.8914e+02  0.000e+00
       1246      4.899    19.1255  83.147173     0.8730     0.4706     8.3415 3.9127e+02  0.000e+00
       1247      4.766    19.1745  83.147158     0.9215     0.4163     8.3461 3.9708e+02  0.000e+00
       1248      4.625    19.2078  83.355285     0.8245     0.3801     8.3441 3.8472e+02  0.000e+00
       1249      4.489    19.2493  83.355273     0.8730     0.3982     8.3395 4.4552e+02  0.000e+00
       1250      4.368    19.2766  83.533669     0.9700     0.3982     8.3412 4.0334e+02  0.000e+00
       1251      4.258    19.3177  83.533657     0.8245     0.3982     8.3462 5.0471e+02  0.000e+00
       1252      4.131    19.3566  83.622848     0.8730     0.3801     8.3546 5.1249e+02  0.000e+00
       1253      4.006    19.3858  83.622839     0.8245     0.3801     8.3492 4.0448e+02  0.000e+00
       1254      3.879    19.4100  83.682300     1.2610     0.3258     8.3540 5.9378e+02  0.000e+00
       1255      3.760    19.4288  83.801233     0.8730     0.3258     8.3564 5.3776e+02  0.000e+00
       1256      3.633    19.4482  83.682288     0.8245     0.3439     8.3572 5.2497e+02  0.000e+00
       1257      3.501    19.4602  83.771487     0.8245     0.3439     8.3587 5.5621e+02  0.000e+00
       1258      3.372    19.4736  83.801217     0.8245     0.3258     8.3575 4.9150e+02  0.000e+00
       1259      3.243    19.4896  83.771477     0.7760     0.2896     8.3549 6.8508e+02  0.000e+00
       1260      3.113    19.5032  83.801207     0.8730     0.3077     8.3621 5.9264e+02  0.000e+00
       1261      2.992    19.5122  83.860673     0.8730     0.2896     8.3747 7.0486e+02  0.000e+00
       1262      2.860    19.5205  83.890404     0.8245     0.2896     8.3775 5.2747e+02  0.000e+00
       1263      2.721    19.5275  83.890401     0.8245     0.2896     8.3775 6.1697e+02  0.000e+00
       1264      2.583    19.5364  83.890398     0.8730     0.2896     8.3837 6.5795e+02  0.000e+00
       1265      2.466    19.5450  83.860660     0.8245     0.2896     8.3931 4.9819e+02  0.000e+00
       1266      2.342    19.5531  83.890391     0.8730     0.2534     8.3938 8.5424e+02  0.000e+00
       1267      2.214    19.5599  83.920123     0.8245     0.2353     8.3954 1.1491e+03  0.000e+00
       1268      2.081    19.5634  83.890386     0.8730     0.2715     8.3912 5.6927e+02  0.000e+00
       1269      1.959    19.5655  83.920120     0.7760     0.2353     8.3899 6.7825e+02  0.000e+00
       1270      1.836    19.5692  83.890383     0.8245     0.2353     8.3911 9.2891e+02  0.000e+00
       1271      1.697    19.5732  83.949850     0.8245     0.2353     8.3942 8.9920e+02  0.000e+00
       1272      1.556    19.5763  83.920114     0.7275     0.2534     8.4021 6.6434e+02  0.000e+00
       1273      1.422    19.5789  84.009316     0.8245     0.2534     8.4101 1.2197e+03  0.000e+00
       1274      1.303    19.5822  83.949845     0.7275     0.2172     8.4207 8.4602e+02  0.000e+00
       1275      1.182    19.5851  83.920108     0.8245     0.2353     8.4262 1.1048e+03  0.000e+00
       1276      1.049    19.5846  83.890372     0.7275     0.2353     8.4364 1.3115e+03  0.000e+00
       1277      0.904    19.5867  83.979575     0.8245     0.2353     8.4357 6.9992e+02  0.000e+00
       1278      0.761    19.5892  83.949838     0.7760     0.2172     8.4358 1.5402e+03  0.000e+00
       1279      0.641    19.5898  83.949837     0.7760     0.1991     8.4284 1.5944e+03  0.000e+00
       1280      0.526    19.5902  83.920101     0.8730     0.2353     8.4294 1.2706e+03  0.000e+00
       1281      0.396    19.5901  83.890366     0.8245     0.1448     8.4279 1.7488e+03  0.000e+00
       1282      0.306    19.5893  83.920100     1.5035     0.1267     8.4307 1.0178e+03  0.000e+00
       1283      0.283    19.5909  83.949834     0.3395     0.3801     8.4341 1.5149e+03  0.000e+00
       1284      0.282    19.5946  84.009303     0.9700     0.2353     8.4342 1.1718e+03  0.000e+00
       1285      0.287    19.5999  84.039036     0.9700     0.2353     8.4454 1.1230e+03  0.000e+00
       1286      0.299    19.6057  84.009300     0.2910     0.0543     8.4594 1.2720e+03  0.000e+00
       1287      0.312    19.6110  84.039034     0.8245     0.3801     8.4616 1.2345e+03  0.000e+00
       1288      0.318    19.6152  84.068767     0.9215     0.2896     8.4562 1.3959e+03  0.000e+00
       1289      0.310    19.6179  84.068767     0.8245     0.2353     8.4589 7.9403e+02  0.000e+00
       1290      0.305    19.6194  84.068766     0.7760     0.1991     8.4591 1.1844e+03  0.000e+00
       1291      0.296    19.6225  84.009295     0.8245     0.1991     8.4552 8.5274e+02  0.000e+00
       1292      0.299    19.6260  84.009294     0.9700     0.2172     8.4480 7.6031e+02  0.000e+00
       1293      0.306    19.6291  84.039029     0.7760     0.2534     8.4460 1.5020e+03  0.000e+00
       1294      0.308    19.6284  84.068764     0.7760     0.1991     8.4410 6.7647e+02  0.000e+00
       1295      0.246    19.6274  84.068764     0.8245     0.1991     8.4493 1.2073e+03  0.000e+00
       1296      0.139    19.6231  83.949824     0.9700     0.2896     8.4526 2.2060e+03  0.000e+00
       1297      0.066    19.6088  84.009297     0.5820     0.3077     8.4424 1.2450e+03  0.000e+00
       1298     -0.031    19.5993  84.039034     0.4365    -0.0181     8.4345 2.1078e+03  0.000e+00
       1299     -0.163    19.6016  84.009297     0.4850     0.1810     8.4253 3.6096e+03  0.000e+00
       1300     -0.252    19.6107  84.068764    26.4325     0.7602     8.4146 3.6249e+03  0.000e+00
       1301     -0.302    19.6211  84.068761    30.1185    -4.4345     8.4109 3.6904e+03  0.000e+00
       1302     -0.397    19.6314  84.068757     8.1965     0.6154     8.4199 2.4706e+03  0.000e+00
       1303     -0.508    19.6372  84.068755     4.1710    -0.6154     8.4316 2.5676e+03  0.000e+00
       1304     -0.593    19.6368  84.068754    -1.6490     2.1177     8.4546 2.1459e+03  0.000e+00
       1305     -0.653    19.6364  84.068754    -6.0140    -5.9730     8.4707 1.6769e+03  0.000e+00
       1306     -0.652    19.6361  84.068754    26.8205     2.5340     8.4539 2.8711e+03  0.000e+00
       1307     -0.655    19.6273  84.128226    12.1735     8.4527     8.3923 3.4285e+03  0.000e+00
       1308     -0.653    19.6057  84.276908   -22.4555    -6.7875     8.2778 2.4383e+03  0.000e+00
       1309     -0.653    19.5852  84.336385    13.6770     3.3304     8.1481 3.7631e+03  0.000e+00
       1310     -0.649    19.5646  84.395861    14.8410    -4.4164     8.0247 3.8009e+03  0.000e+00
       1311     -0.651    19.5493  84.306659     5.7715     0.5430     7.9170 3.5636e+03  0.000e+00
       1312     -0.649    19.5390  84.276927     4.6075     0.2172     7.8259 3.1685e+03  0.000e+00
       1313     -0.650    19.5316  84.306664    -2.2310     6.1359     7.7684 2.8974e+03  0.000e+00
       1314     -0.651    19.5179  84.276932   -12.7070    -1.2127     7.7272 3.5089e+03  0.000e+00
       1315     -0.652    19.5025  84.395878     4.4620    -0.4163     7.7518 3.4015e+03  0.000e+00
       1316     -0.653    19.4926  80.560374     0.0000     0.0362     7.9361 3.3700e+03  0.000e+00
       1317     -0.655    19.4786  22.405846    -2.3280     0.0543     8.2157 2.1782e+03  0.000e+00
       1318     -0.652    19.4645  18.700956    -6.1595    -3.4752     8.5022 2.4559e+03  0.000e+00
