* Sea-Bird SBE19plus Data File:
* FileName = C:\Users\User\Desktop\WorkingFolder\HEX\MON10_13Aug2015052.hex
* Software Version 1.59
* Temperature SN =  7506
* Conductivity SN =  7506
* System UpLoad Time = Aug 13 2015 16:21:58
* ds
* SBE 19plus V 2.5.2  SERIAL NO. 7506    13 Aug 2015 16:14:43
* vbatt = 11.6, vlith =  8.6, ioper =  61.0 ma, ipump =  64.5 ma,
* iext01 =   5.6 ma, iext2345 =   3.3 ma, iserial =  27.8 ma
* status = not logging
* number of scans to average = 1
* samples = 195650, free = 2937594, casts = 68
* mode = profile, minimum cond freq = 0, pump delay = 75 sec
* autorun = no, ignore magnetic switch = no
* battery type = alkaline, battery cutoff =  7.5 volts
* pressure sensor = strain gauge, range = 508.0
* SBE 38 = no, WETLABS = yes, OPTODE = no, SBE63 = no, Gas Tension Device = no
* Ext Volt 0 = yes, Ext Volt 1 = no
* Ext Volt 2 = yes, Ext Volt 3 = no
* Ext Volt 4 = no, Ext Volt 5 = no
* echo characters = yes
* output format = raw HEX

* S>
*
* SBE 19plus V 2.5.2  SERIAL NO. 7506    13 Aug 2015 16:15:02
* temperature:  26-Jun-14
*     TA0 = 1.261374e-03
*     TA1 = 2.712933e-04
*     TA2 = -8.461344e-07
*     TA3 = 1.733276e-07
*     TOFFSET = 0.000000e+00
* conductivity:  26-Jun-14
*     G = -9.792998e-01
*     H = 1.471061e-01
*     I = -2.352037e-04
*     J = 3.954140e-05
*     CPCOR = -9.570000e-08
*     CTCOR = 3.250000e-06
*     CSLOPE = 1.000000e+00
* pressure S/N = 4157547, range = 508 psia:  20-Jun-14
*     PA0 = 1.321742e-01
*     PA1 = 1.547028e-03
*     PA2 = 7.529256e-12
*     PTCA0 = 5.274062e+05
*     PTCA1 = 6.817428e+00
*     PTCA2 = -1.369143e-01
*     PTCB0 = 2.521837e+01
*     PTCB1 = -3.250000e-04
*     PTCB2 = 0.000000e+00
*     PTEMPA0 = -7.054527e+01
*     PTEMPA1 = 5.028533e+01
*     PTEMPA2 = -2.206998e-01
*     POFFSET = 0.000000e+00
* volt 0: offset = -4.618527e-02, slope = 1.250448e+00
* volt 1: offset = -4.556105e-02, slope = 1.250200e+00
* volt 2: offset = -4.548842e-02, slope = 1.249971e+00
* volt 3: offset = -4.587053e-02, slope = 1.250295e+00
* volt 4: offset = -4.544105e-02, slope = 1.251388e+00
* volt 5: offset = -4.670421e-02, slope = 1.249342e+00
*     EXTFREQSF = 9.999918e-01
* dh
* cast  52 12 Aug 2015 09:31:04 samples 153577 to 155284, avg = 1, stop = mag switch

* S>
# nquan = 9
# nvalues = 1708                                  
# units = specified
# name 0 = scan: Scan Count
# name 1 = prdM: Pressure, Strain Gauge [db]
# name 2 = tv290C: Temperature [ITS-90, deg C]
# name 3 = c0uS/cm: Conductivity [uS/cm]
# name 4 = turbWETntu0: Turbidity, WET Labs ECO [NTU]
# name 5 = flECO-AFL: Fluorescence, WET Labs ECO-AFL/FL [mg/m^3]
# name 6 = sbeox0Mg/L: Oxygen, SBE 43 [mg/l]
# name 7 = par: PAR/Irradiance, Biospherical/Licor
# name 8 = flag:  0.000e+00
# span 0 =          1,       1708                 
# span 1 =     -0.648,     37.181                 
# span 2 =    12.5436,    19.6221                 
# span 3 =   1.785928,  86.566696                 
# span 4 =   -11.3490,    18.2360                 
# span 5 =    -3.0951,     8.3984                 
# span 6 =     5.5706,    10.4521                 
# span 7 = 1.0000e-12, 3.4183e+03                 
# span 8 = 0.0000e+00, 0.0000e+00                 
# interval = seconds: 0.25
# start_time = Aug 12 2015 09:31:04 [Instrument's time stamp, header]
# bad_flag = -9.990e-29
# <Sensors count="8" >
#   <sensor Channel="1" >
#     <!-- Count, Temperature -->
#     <TemperatureSensor SensorID="58" >
#       <SerialNumber>7506</SerialNumber>
#       <CalibrationDate>26-Jun-14</CalibrationDate>
#       <A0>1.26137383e-003</A0>
#       <A1>2.71293306e-004</A1>
#       <A2>-8.46134365e-007</A2>
#       <A3>1.73327598e-007</A3>
#       <Slope>1.00000000</Slope>
#       <Offset>0.0000</Offset>
#     </TemperatureSensor>
#   </sensor>
#   <sensor Channel="2" >
#     <!-- Frequency 0, Conductivity -->
#     <ConductivitySensor SensorID="3" >
#       <SerialNumber>7506</SerialNumber>
#       <CalibrationDate>26-Jun-14</CalibrationDate>
#       <UseG_J>1</UseG_J>
#       <!-- Cell const and series R are applicable only for wide range sensors. -->
#       <SeriesR>0.0000</SeriesR>
#       <CellConst>2000.0000</CellConst>
#       <ConductivityType>0</ConductivityType>
#       <Coefficients equation="0" >
#         <A>0.00000000e+000</A>
#         <B>0.00000000e+000</B>
#         <C>0.00000000e+000</C>
#         <D>0.00000000e+000</D>
#         <M>0.0</M>
#         <CPcor>-9.57000000e-008</CPcor>
#       </Coefficients>
#       <Coefficients equation="1" >
#         <G>-9.79299780e-001</G>
#         <H>1.47106091e-001</H>
#         <I>-2.35203711e-004</I>
#         <J>3.95414013e-005</J>
#         <CPcor>-9.57000000e-008</CPcor>
#         <CTcor>3.2500e-006</CTcor>
#         <!-- WBOTC not applicable unless ConductivityType = 1. -->
#         <WBOTC>0.00000000e+000</WBOTC>
#       </Coefficients>
#       <Slope>1.00000000</Slope>
#       <Offset>0.00000</Offset>
#     </ConductivitySensor>
#   </sensor>
#   <sensor Channel="3" >
#     <!-- Count, Pressure, Strain Gauge -->
#     <PressureSensor SensorID="46" >
#       <SerialNumber>7506</SerialNumber>
#       <CalibrationDate>20-Jun-14</CalibrationDate>
#       <PA0>1.32174204e-001</PA0>
#       <PA1>1.54702776e-003</PA1>
#       <PA2>7.52925639e-012</PA2>
#       <PTEMPA0>-7.05452734e+001</PTEMPA0>
#       <PTEMPA1>5.02853344e+001</PTEMPA1>
#       <PTEMPA2>-2.20699827e-001</PTEMPA2>
#       <PTCA0>5.27406123e+005</PTCA0>
#       <PTCA1>6.81742828e+000</PTCA1>
#       <PTCA2>-1.36914336e-001</PTCA2>
#       <PTCB0>2.52183750e+001</PTCB0>
#       <PTCB1>-3.25000000e-004</PTCB1>
#       <PTCB2>0.00000000e+000</PTCB2>
#       <Offset>0.000000</Offset>
#     </PressureSensor>
#   </sensor>
#   <sensor Channel="4" >
#     <!-- A/D voltage 0, Oxygen, SBE 43 -->
#     <OxygenSensor SensorID="38" >
#       <SerialNumber>2911</SerialNumber>
#       <CalibrationDate>27-Jun-14</CalibrationDate>
#       <Use2007Equation>1</Use2007Equation>
#       <CalibrationCoefficients equation="0" >
#         <!-- Coefficients for Owens-Millard equation. -->
#         <Boc>0.0000</Boc>
#         <Soc>0.0000e+000</Soc>
#         <offset>0.0000</offset>
#         <Pcor>0.00e+000</Pcor>
#         <Tcor>0.0000</Tcor>
#         <Tau>0.0</Tau>
#       </CalibrationCoefficients>
#       <CalibrationCoefficients equation="1" >
#         <!-- Coefficients for Sea-Bird equation - SBE calibration in 2007 and later. -->
#         <Soc>3.5354e-001</Soc>
#         <offset>-0.5145</offset>
#         <A>-2.1770e-003</A>
#         <B> 1.4331e-004</B>
#         <C>-2.5457e-006</C>
#         <D0> 2.5826e+000</D0>
#         <D1> 1.92634e-004</D1>
#         <D2>-4.64803e-002</D2>
#         <E> 3.6000e-002</E>
#         <Tau20> 1.9400</Tau20>
#         <H1>-3.3000e-002</H1>
#         <H2> 5.0000e+003</H2>
#         <H3> 1.4500e+003</H3>
#       </CalibrationCoefficients>
#     </OxygenSensor>
#   </sensor>
#   <sensor Channel="5" >
#     <!-- A/D voltage 1, PAR/Irradiance, Biospherical/Licor -->
#     <PAR_BiosphericalLicorChelseaSensor SensorID="42" >
#       <SerialNumber>70565</SerialNumber>
#       <CalibrationDate>06/23/14</CalibrationDate>
#       <M>1.00000000</M>
#       <B>0.00000000</B>
#       <CalibrationConstant>12077000000.00000000</CalibrationConstant>
#       <Multiplier>1.00000000</Multiplier>
#       <Offset>-0.08492398</Offset>
#     </PAR_BiosphericalLicorChelseaSensor>
#   </sensor>
#   <sensor Channel="6" >
#     <!-- Serial RS-232, Fluorometer, WET Labs ECO-AFL/FL -->
#     <FluoroWetlabECO_AFL_FL_Sensor SensorID="20" >
#       <SerialNumber>FLNTURT-3481</SerialNumber>
#       <CalibrationDate>5-Feb-14</CalibrationDate>
#       <ScaleFactor>1.81000000e-002</ScaleFactor>
#       <!-- Dark output -->
#       <Vblank>48.0000</Vblank>
#     </FluoroWetlabECO_AFL_FL_Sensor>
#   </sensor>
#   <sensor Channel="7" >
#     <!-- Serial RS-232, Turbidity Meter, WET Labs, ECO-NTU -->
#     <TurbidityMeter SensorID="67" >
#       <SerialNumber>FLNTURT-3481</SerialNumber>
#       <CalibrationDate>5-Feb-14</CalibrationDate>
#       <ScaleFactor>0.048500</ScaleFactor>
#       <!-- Dark output -->
#       <DarkVoltage>50.000000</DarkVoltage>
#     </TurbidityMeter>
#   </sensor>
#   <sensor Channel="8" >
#     <!-- Serial RS-232, Free -->
#   </sensor>
# </Sensors>
# datcnv_date = Aug 13 2015 16:50:13, 7.23.2 [datcnv_vars = 8]
# datcnv_in = C:\Users\User\Desktop\WorkingFolder\HEX\MON10_13Aug2015052.hex C:\Users\User\Desktop\WorkingFolder\19-7506-withPAR15.xmlcon
# datcnv_skipover = 0
# datcnv_ox_hysteresis_correction = yes
# datcnv_ox_tau_correction = yes
# file_type = ascii
*END*
          1     -0.643    18.2523   2.170873     0.5335     0.1086     8.8058 3.3558e+03  0.000e+00
          2     -0.644    18.2503   2.111650     0.5335     0.0362     8.8085 3.3588e+03  0.000e+00
          3     -0.644    18.2468   2.170873     0.5820     0.0181     8.8058 3.3641e+03  0.000e+00
          4     -0.643    18.2450   2.170873     0.5820     0.0362     8.8004 3.3564e+03  0.000e+00
          5     -0.644    18.2460   2.082039     0.7760    -0.0181     8.7988 3.3552e+03  0.000e+00
          6     -0.643    18.2473   2.170873     0.6305     0.1086     8.7966 3.3558e+03  0.000e+00
          7     -0.644    18.2485   2.111650     0.7275     0.0000     8.7928 3.3599e+03  0.000e+00
          8     -0.644    18.2497   2.111650     0.6305     0.0543     8.7940 3.3499e+03  0.000e+00
          9     -0.644    18.2506   2.111650     0.4365     0.0362     8.7925 3.3576e+03  0.000e+00
         10     -0.643    18.2509   2.111650     0.8245     0.0181     8.7932 3.3493e+03  0.000e+00
         11     -0.643    18.2514   2.082039     0.5335     0.0000     8.7977 3.3546e+03  0.000e+00
         12     -0.646    18.2510   2.111650     0.4850    -0.0181     8.7987 3.3552e+03  0.000e+00
         13     -0.645    18.2487   2.082039     0.7275     0.0362     8.7974 3.3440e+03  0.000e+00
         14     -0.643    18.2478   2.082039     0.5335     0.0000     8.8028 3.3458e+03  0.000e+00
         15     -0.643    18.2467   2.082039     0.7760     0.0362     8.8011 3.3529e+03  0.000e+00
         16     -0.644    18.2410   2.082039     0.5820     0.0543     8.8006 3.3511e+03  0.000e+00
         17     -0.645    18.2363   2.022817     0.4365     0.0362     8.8011 3.3546e+03  0.000e+00
         18     -0.644    18.2343   2.022817     0.5335     0.0724     8.8048 3.3676e+03  0.000e+00
         19     -0.643    18.2347   2.022817     0.6305     0.0543     8.8072 3.3747e+03  0.000e+00
         20     -0.643    18.2342   2.082039     0.7760     0.0724     8.8157 3.3890e+03  0.000e+00
         21     -0.645    18.2336   2.022817     0.7275     0.0724     8.8140 3.3937e+03  0.000e+00
         22     -0.644    18.2340   2.022817     0.4365     0.0543     8.8197 3.3902e+03  0.000e+00
         23     -0.644    18.2352   2.022817     0.7275     0.0543     8.8242 3.3860e+03  0.000e+00
         24     -0.644    18.2365   2.022817     0.5335     0.0000     8.8275 3.3860e+03  0.000e+00
         25     -0.644    18.2378   2.022817     0.5820    -0.0181     8.8314 3.3830e+03  0.000e+00
         26     -0.645    18.2393   2.022817     0.6790     0.0905     8.8302 3.3896e+03  0.000e+00
         27     -0.645    18.2405   2.022817     0.5335     0.0362     8.8347 3.3914e+03  0.000e+00
         28     -0.646    18.2418   2.082039     0.6790     0.0543     8.8350 3.3908e+03  0.000e+00
         29     -0.645    18.2441   2.022817     0.5335     0.0543     8.8372 3.3848e+03  0.000e+00
         30     -0.645    18.2466   2.022816     0.5335     0.0724     8.8328 3.3783e+03  0.000e+00
         31     -0.646    18.2493   1.963594     0.5820     0.0362     8.8313 3.3759e+03  0.000e+00
         32     -0.643    18.2516   2.022816     0.6305     0.0181     8.8214 3.3735e+03  0.000e+00
         33     -0.645    18.2536   1.993205     0.5335     0.0362     8.8212 3.3771e+03  0.000e+00
         34     -0.644    18.2546   1.963594     0.6790     0.0362     8.8152 3.3848e+03  0.000e+00
         35     -0.645    18.2556   2.022816     0.4850     0.0362     8.8127 3.3854e+03  0.000e+00
         36     -0.644    18.2574   2.022816     0.5820     0.0362     8.8124 3.3914e+03  0.000e+00
         37     -0.644    18.2593   2.022816     0.4850     0.0362     8.8154 3.3878e+03  0.000e+00
         38     -0.645    18.2617   1.963594     0.5335    -0.0362     8.8172 3.3890e+03  0.000e+00
         39     -0.646    18.2636   1.993205     0.5335     0.0181     8.8122 3.3902e+03  0.000e+00
         40     -0.646    18.2653   1.963594     0.5820     0.0181     8.8191 3.3902e+03  0.000e+00
         41     -0.646    18.2671   1.963594     0.4850     0.0724     8.8197 3.3902e+03  0.000e+00
         42     -0.645    18.2685   2.022816     0.4850     0.0543     8.8214 3.3854e+03  0.000e+00
         43     -0.643    18.2700   1.963594     0.5820     0.0905     8.8193 3.3836e+03  0.000e+00
         44     -0.646    18.2717   1.993205     0.5820     0.0362     8.8139 3.3836e+03  0.000e+00
         45     -0.646    18.2732   1.963594     0.6305     0.0543     8.8148 3.3807e+03  0.000e+00
         46     -0.645    18.2742   1.904372     0.6790     0.1086     8.8181 3.3807e+03  0.000e+00
         47     -0.644    18.2758   1.993205     0.7275     0.0181     8.8202 3.3813e+03  0.000e+00
         48     -0.644    18.2782   1.963594     0.4850     0.0181     8.8167 3.3712e+03  0.000e+00
         49     -0.646    18.2813   1.963594     0.4850     0.0543     8.8136 3.3676e+03  0.000e+00
         50     -0.644    18.2840   1.933983     0.5820     0.0181     8.8111 3.3741e+03  0.000e+00
         51     -0.646    18.2864   1.963594     0.4365     0.0181     8.8064 3.3735e+03  0.000e+00
         52     -0.645    18.2887   1.963594     0.6790     0.0181     8.8091 3.3753e+03  0.000e+00
         53     -0.645    18.2915   1.993205     0.5820     0.0181     8.8022 3.3866e+03  0.000e+00
         54     -0.645    18.2941   1.904372     0.5335     0.0362     8.8005 3.3854e+03  0.000e+00
         55     -0.644    18.2967   1.963594     0.4365     0.0181     8.7949 3.3860e+03  0.000e+00
         56     -0.646    18.2994   1.933983     0.5335     0.0181     8.7907 3.3866e+03  0.000e+00
         57     -0.645    18.3017   1.904372     0.6305     0.0000     8.7912 3.3724e+03  0.000e+00
         58     -0.644    18.3042   1.963594     0.4850     0.0181     8.7881 3.3813e+03  0.000e+00
         59     -0.645    18.3066   1.933983     0.6790     0.0362     8.7927 3.3824e+03  0.000e+00
         60     -0.646    18.3083   1.904372     0.5335     0.0905     8.7922 3.3920e+03  0.000e+00
         61     -0.646    18.3100   1.904372     0.5335     0.0000     8.7920 3.4183e+03  0.000e+00
         62     -0.647    18.3118   1.933983     0.6305     0.1267     8.7993 3.3890e+03  0.000e+00
         63     -0.646    18.3126   1.963594     0.7760     0.0000     8.7982 3.3747e+03  0.000e+00
         64     -0.645    18.3143   1.963594     0.6790     0.0362     8.7993 3.3848e+03  0.000e+00
         65     -0.645    18.3162   1.993205     0.7275     0.0181     8.8016 3.3937e+03  0.000e+00
         66     -0.645    18.3178   1.845150     0.6790    -0.0724     8.8013 3.3955e+03  0.000e+00
         67     -0.644    18.3198   1.963594     0.6305     0.0543     8.8018 3.3866e+03  0.000e+00
         68     -0.646    18.3220   1.933983     0.6305     0.0362     8.8015 3.3961e+03  0.000e+00
         69     -0.648    18.3241   1.904372     0.6305     0.1086     8.8073 3.3973e+03  0.000e+00
         70     -0.647    18.3265   1.904372     0.5820    -0.0181     8.8044 3.3967e+03  0.000e+00
         71     -0.646    18.3287   1.933983     0.5335     0.0543     8.8081 3.3991e+03  0.000e+00
         72     -0.646    18.3308   1.904371     0.7275     0.0000     8.8101 3.4027e+03  0.000e+00
         73     -0.643    18.3329   1.845150     0.3395     0.0181     8.8162 3.4081e+03  0.000e+00
         74     -0.645    18.3350   1.874760     0.7275     0.0362     8.8178 3.4099e+03  0.000e+00
         75     -0.647    18.3368   1.845149     0.8245     0.0362     8.8244 3.4099e+03  0.000e+00
         76     -0.645    18.3388   1.874760     0.5820     0.0000     8.8251 3.4027e+03  0.000e+00
         77     -0.646    18.3414   1.904371     0.5820     0.0362     8.8256 3.3765e+03  0.000e+00
         78     -0.646    18.3442   1.904371     0.5820     0.0724     8.8316 3.3358e+03  0.000e+00
         79     -0.645    18.3463   1.874760     0.5820     0.0543     8.8374 3.3066e+03  0.000e+00
         80     -0.646    18.3480   1.845149     0.3395     0.0000     8.8357 3.2634e+03  0.000e+00
         81     -0.646    18.3498   1.904371     0.0000     0.0362     8.8365 3.1646e+03  0.000e+00
         82     -0.646    18.3515   1.874760     0.6790     0.0362     8.8411 3.0451e+03  0.000e+00
         83     -0.644    18.3531   1.904371     0.4850     0.0181     8.8356 2.9395e+03  0.000e+00
         84     -0.647    18.3549   1.904371     0.5820     0.0362     8.8396 2.8731e+03  0.000e+00
         85     -0.647    18.3566   1.874760     0.7275     0.0000     8.8349 2.8067e+03  0.000e+00
         86     -0.645    18.3578   1.845149     0.0000     0.0362     8.8322 2.7008e+03  0.000e+00
         87     -0.647    18.3597   1.904371     0.0000     0.0362     8.8288 2.6080e+03  0.000e+00
         88     -0.648    18.3610   1.874760     0.0000     0.0362     8.8286 2.4306e+03  0.000e+00
         89     -0.647    18.3624   1.904371     0.0000     0.0362     8.8287 2.3160e+03  0.000e+00
         90     -0.646    18.3639   1.904371     0.0000     0.0362     8.8270 2.2728e+03  0.000e+00
         91     -0.644    18.3652   1.874760     0.0000     0.0362     8.8268 2.2490e+03  0.000e+00
         92     -0.645    18.3665   1.904371     0.0000     0.0362     8.8255 2.1978e+03  0.000e+00
         93     -0.646    18.3676   1.845149     0.0000     0.0362     8.8266 2.1478e+03  0.000e+00
         94     -0.646    18.3677   1.933982     0.0000     0.0362     8.8237 2.1320e+03  0.000e+00
         95     -0.646    18.3676   1.904371     0.5820     0.0000     8.8207 2.1362e+03  0.000e+00
         96     -0.646    18.3680   1.845149     1.1640    -0.0543     8.8235 2.1396e+03  0.000e+00
         97     -0.645    18.3690   1.845149     0.5335     0.0724     8.8186 2.1377e+03  0.000e+00
         98     -0.645    18.3702   1.845149     0.5335     0.0543     8.8186 2.1305e+03  0.000e+00
         99     -0.644    18.3710   1.845149     0.4850     0.0724     8.8199 2.1577e+03  0.000e+00
        100     -0.646    18.3719   1.874760     0.4365     0.1086     8.8176 2.1524e+03  0.000e+00
        101     -0.646    18.3730   1.845149     0.8730     0.0543     8.8182 1.2050e+03  0.000e+00
        102     -0.644    18.3740   1.785928     0.6790     0.0724     8.8169 8.5364e+02  0.000e+00
        103     -0.645    18.3744   1.874760     0.6790     0.0543     8.8122 8.6542e+02  0.000e+00
        104     -0.645    18.3740   1.845149     0.6790     0.0362     8.8124 7.7283e+02  0.000e+00
        105     -0.646    18.3735   1.963593     0.6790     0.0724     8.8121 7.1811e+02  0.000e+00
        106     -0.645    18.3735   2.230095     0.5820     0.0362     8.8101 7.8529e+02  0.000e+00
        107     -0.645    18.3732   2.555824     0.4850    -0.2715     8.8127 7.9013e+02  0.000e+00
        108     -0.646    18.3737   2.822334     0.0000     0.0362     8.8147 7.2241e+02  0.000e+00
        109     -0.643    18.3748   2.881559     0.0000     0.0362     8.8135 8.8759e+02  0.000e+00
        110     -0.645    18.3773   2.763110     0.0000     0.0362     8.8127 1.2941e+03  0.000e+00
        111     -0.646    18.3817   2.792722     0.0000     0.0362     8.8132 1.0766e+03  0.000e+00
        112     -0.646    18.3857   2.763109     0.0000     0.0362     8.8169 9.4090e+02  0.000e+00
        113     -0.646    18.3887   2.763109     0.0000     0.0362     8.8181 7.9865e+02  0.000e+00
        114     -0.644    18.3880   2.970397     0.0000     0.0362     8.8190 8.9700e+02  0.000e+00
        115     -0.643    18.3826   3.621886     0.0000     0.0362     8.8152 1.6716e+03  0.000e+00
        116     -0.646    18.3825   4.421470     0.0000     0.0362     8.8138 1.7320e+03  0.000e+00
        117     -0.628    18.3846   8.182914     0.0000     0.0362     8.8154 1.3142e+03  0.000e+00
        118     -0.443    18.4508  72.505511    -8.1965     0.0362     8.8018 9.0985e+02  0.000e+00
        119     -0.285    18.7823  81.630864    14.0165     2.8236     8.7433 3.1380e+03  0.000e+00
        120     -0.244    19.0773  86.447858    11.4460     5.7196     8.6962 3.1662e+03  0.000e+00
        121     -0.195    19.2479  86.061212     6.8385    -1.3394     8.6871 3.2846e+03  0.000e+00
        122     -0.128    19.3507  86.239613    -3.6860    -1.7738     8.7050 3.2726e+03  0.000e+00
        123     -0.096    19.4179  86.239594    -0.2910     0.0543     8.7432 3.0898e+03  0.000e+00
        124     -0.096    19.4582  86.180106     0.4365     0.0724     8.8022 2.1733e+03  0.000e+00
        125     -0.095    19.4787  86.150362     1.7460     0.3801     8.8682 2.2098e+03  0.000e+00
        126     -0.092    19.4864  86.061146     1.1155     0.2715     8.9334 2.5685e+03  0.000e+00
        127     -0.085    19.4898  86.061145     2.1825     0.8507     8.9819 1.9080e+03  0.000e+00
        128     -0.072    19.4920  86.061144    -1.5035    -0.4525     9.0110 3.3008e+03  0.000e+00
        129     -0.066    19.4948  86.061144     2.2310    -1.6833     9.0182 3.1690e+03  0.000e+00
        130     -0.063    19.4971  86.001667     1.8915     0.0362     9.0070 1.2571e+03  0.000e+00
        131     -0.063    19.5007  86.031404     0.9215     0.3620     8.9841 1.2094e+03  0.000e+00
        132     -0.063    19.5053  86.061141     0.8245     0.1629     8.9569 2.7342e+03  0.000e+00
        133     -0.058    19.5098  86.090878     0.5335    -0.1629     8.9307 3.1779e+03  0.000e+00
        134     -0.033    19.5137  86.120615     0.7275     0.2715     8.9063 1.4111e+03  0.000e+00
        135      0.020    19.5178  86.209829     0.7760     0.3258     8.8174 1.5388e+03  0.000e+00
        136      0.049    19.5221  86.061137     0.9700     0.1629     8.5900 1.4496e+03  0.000e+00
        137      0.025    19.5240  86.061136     0.0485     0.1629     8.2522 1.2443e+03  0.000e+00
        138     -0.036    19.5165  86.061138     0.5820     0.1086     7.8495 3.2531e+03  0.000e+00
        139     -0.052    19.4957  86.180096     1.0185    -0.0362     7.4294 3.2985e+03  0.000e+00
        140     -0.010    19.4980  86.239572     0.8245     0.1991     7.0477 1.3959e+03  0.000e+00
        141      0.029    19.5130  86.061139     0.7760     0.1810     6.8011 1.1069e+03  0.000e+00
        142      0.045    19.5219  86.061137     0.2425     0.2896     6.7734 8.8650e+02  0.000e+00
        143      0.077    19.5224  86.061137     0.5820     0.2715     6.8806 1.0555e+03  0.000e+00
        144      0.105    19.5205  86.061138     1.1640     0.3439     7.0326 1.4077e+03  0.000e+00
        145      0.123    19.5194  85.971925     0.9215     0.1810     7.1770 1.1169e+03  0.000e+00
        146      0.140    19.5192  86.061139     0.6305     0.2896     7.2721 1.2073e+03  0.000e+00
        147      0.149    19.5203  86.031400     0.8245     0.1267     7.2975 9.7455e+02  0.000e+00
        148      0.163    19.5236  86.061138     0.4365     0.1086     7.2291 1.3142e+03  0.000e+00
        149      0.176    19.5275  85.971923     0.8245     0.2353     7.0691 9.7524e+02  0.000e+00
        150      0.196    19.5275  85.971923     0.9215     0.2353     6.8552 1.4537e+03  0.000e+00
        151      0.207    19.5282  85.912447     0.8245     0.2172     6.6438 8.3906e+02  0.000e+00
        152      0.207    19.5288  86.031398     0.7275     0.2172     6.4645 9.0873e+02  0.000e+00
        153      0.213    19.5310  86.061136     0.8245     0.2353     6.3141 8.5619e+02  0.000e+00
        154      0.215    19.5352  86.031397     0.8245     0.1448     6.1890 8.9197e+02  0.000e+00
        155      0.211    19.5383  86.031396     0.7275     0.2172     6.1105 9.8661e+02  0.000e+00
        156      0.205    19.5387  86.061134     0.8730     0.1810     6.0717 7.7760e+02  0.000e+00
        157      0.204    19.5376  86.061134     0.7275     0.2172     6.0570 1.2945e+03  0.000e+00
        158      0.203    19.5390  86.061134     0.8245     0.2172     6.0660 9.4272e+02  0.000e+00
        159      0.213    19.5424  86.031395     0.8245     0.2172     6.1237 1.0990e+03  0.000e+00
        160      0.213    19.5450  86.031394     0.6305     0.2896     6.2399 1.4504e+03  0.000e+00
        161      0.212    19.5458  86.061132     0.7760     0.2172     6.3972 2.0322e+03  0.000e+00
        162      0.212    19.5462  86.061132     0.8730     0.2172     6.5764 1.0930e+03  0.000e+00
        163      0.211    19.5471  86.061131     0.7760     0.1810     6.7522 5.2405e+02  0.000e+00
        164      0.212    19.5484  86.061131     0.8730     0.2353     6.9358 1.2398e+03  0.000e+00
        165      0.212    19.5492  86.031393     0.7275     0.2353     7.1296 6.4230e+02  0.000e+00
        166      0.214    19.5494  86.061131     0.8730     0.1810     7.2824 1.2263e+03  0.000e+00
        167      0.214    19.5500  86.031393     0.7760     0.2715     7.3848 5.7328e+02  0.000e+00
        168      0.217    19.5499  86.031393     0.7760     0.2172     7.4390 1.2259e+03  0.000e+00
        169      0.218    19.5503  86.001655     0.8245     0.2534     7.4537 8.1024e+02  0.000e+00
        170      0.222    19.5519  86.061130     0.7760     0.2172     7.4223 9.5322e+02  0.000e+00
        171      0.219    19.5530  86.061130     0.7275     0.2353     7.3674 1.3672e+03  0.000e+00
        172      0.210    19.5529  86.031392     0.9215     0.1810     7.2813 1.2337e+03  0.000e+00
        173      0.202    19.5519  86.031392     0.7760     0.2172     7.1695 1.0248e+03  0.000e+00
        174      0.209    19.5524  86.061130     0.8245     0.2172     7.0500 1.2274e+03  0.000e+00
        175      0.218    19.5532  86.031392     0.7760     0.2353     6.9360 7.6098e+02  0.000e+00
        176      0.221    19.5493  86.001655     0.6305     0.3077     6.8493 7.3071e+02  0.000e+00
        177      0.217    19.5412  85.912444     0.6790     0.2172     6.7741 8.9952e+02  0.000e+00
        178      0.205    19.5398  85.971920     0.6790     0.2715     6.7182 1.4074e+03  0.000e+00
        179      0.205    19.5425  86.061133     0.6790     0.2896     6.6608 8.6709e+02  0.000e+00
        180      0.213    19.5473  86.061131     0.7760     0.2172     6.6413 1.5313e+03  0.000e+00
        181      0.219    19.5500  86.031393     0.7760     0.2353     6.6655 7.9738e+02  0.000e+00
        182      0.216    19.5453  85.942180     0.7760     0.2534     6.7102 9.3793e+02  0.000e+00
        183      0.172    19.5391  85.912444     0.8730     0.2534     6.7382 8.2113e+02  0.000e+00
        184      0.091    19.5356  85.912444     0.4850     0.2715     6.7266 1.1000e+03  0.000e+00
        185      0.028    19.5253  85.971922     0.6790     0.2896     6.6696 1.1142e+03  0.000e+00
        186      0.001    19.5201  86.061137     0.8730     0.1991     6.5921 7.2559e+02  0.000e+00
        187      0.006    19.5260  86.090874     1.0185     0.3439     6.5416 1.0329e+03  0.000e+00
        188      0.017    19.5301  85.971921     0.7760     0.1448     6.5523 1.2406e+03  0.000e+00
        189      0.023    19.5316  85.942182     0.7275     0.2353     6.6534 1.0055e+03  0.000e+00
        190      0.014    19.5344  85.852968     1.0185     0.2172     6.8546 1.0575e+03  0.000e+00
        191      0.008    19.5266  85.912446     0.6790     0.2534     7.0909 1.1955e+03  0.000e+00
        192      0.021    19.5190  86.001662     0.8245     0.2353     7.2968 1.2929e+03  0.000e+00
        193      0.047    19.5176  86.031400     0.8245     0.3077     7.4444 1.1222e+03  0.000e+00
        194      0.065    19.5200  85.942186     0.9215     0.3258     7.5120 1.3048e+03  0.000e+00
        195      0.083    19.5198  86.031400     0.7760     0.2353     7.4920 1.0050e+03  0.000e+00
        196      0.123    19.5263  86.031398     1.2125     0.2534     7.3754 8.8075e+02  0.000e+00
        197      0.141    19.5353  86.001658     0.7275     0.3258     7.1972 7.3664e+02  0.000e+00
        198      0.115    19.5362  85.971920     0.8730     0.2172     7.0202 1.2302e+03  0.000e+00
        199      0.076    19.5302  85.912446     0.7275     0.2172     6.8704 8.5454e+02  0.000e+00
        200      0.033    19.5101  85.912451     1.3095     0.2353     6.7552 1.2222e+03  0.000e+00
        201     -0.003    19.4877  85.971932     0.4850     0.4163     6.6925 1.2753e+03  0.000e+00
        202      0.012    19.4695  85.942200     0.8730     0.1991     6.6921 1.0067e+03  0.000e+00
        203      0.042    19.4653  85.971939     0.5335     0.1086     6.7452 1.0101e+03  0.000e+00
        204      0.060    19.4770  86.031412     0.6790     0.4344     6.8345 9.4987e+02  0.000e+00
        205      0.072    19.4913  86.001670     0.8245     0.3258     6.8829 1.0570e+03  0.000e+00
        206      0.076    19.5017  86.031405     0.7760     0.2534     6.9143 1.0829e+03  0.000e+00
        207      0.077    19.5106  85.942189     0.8245     0.1991     6.8806 1.2547e+03  0.000e+00
        208      0.065    19.5165  85.971925     0.7275     0.2353     6.8176 1.0980e+03  0.000e+00
        209      0.061    19.5190  85.971924     0.7760     0.3258     6.7334 1.1896e+03  0.000e+00
        210      0.063    19.5206  85.942186     0.6790     0.3258     6.6397 1.0702e+03  0.000e+00
        211      0.042    19.5235  85.912447     0.6790     0.2715     6.5762 1.2328e+03  0.000e+00
        212      0.023    19.5251  85.971922     0.6305     0.1448     6.5378 1.2054e+03  0.000e+00
        213      0.009    19.5269  85.912446     0.9215     0.1629     6.5378 1.3356e+03  0.000e+00
        214     -0.004    19.5275  85.912446     0.0970    -0.0362     6.5251 1.0411e+03  0.000e+00
        215     -0.008    19.5274  85.942183     0.5820     0.1629     6.5317 1.4998e+03  0.000e+00
        216     -0.007    19.5293  86.031397     2.4250     0.2172     6.5197 1.0890e+03  0.000e+00
        217      0.005    19.5346  86.031395    -1.6975     0.1267     6.5045 9.1177e+02  0.000e+00
        218      0.016    19.5392  85.912442     1.4065     0.6878     6.5049 1.1648e+03  0.000e+00
        219      0.015    19.5372  85.912443     4.2680    -0.5611     6.5156 9.0443e+02  0.000e+00
        220      0.010    19.5344  85.912444     1.2610     0.2353     6.5129 6.8256e+02  0.000e+00
        221      0.002    19.5210  85.912447     1.8430     0.4163     6.5051 6.7933e+02  0.000e+00
        222      0.004    19.4959  85.912454     1.1155     0.1991     6.5040 1.0926e+03  0.000e+00
        223      0.017    19.4677  85.823249     0.4850     0.5792     6.5048 1.6133e+03  0.000e+00
        224      0.028    19.4480  85.793517     0.7275     0.4706     6.4931 7.6285e+02  0.000e+00
        225      0.037    19.4367  85.823258     1.3580     0.1629     6.4922 8.5289e+02  0.000e+00
        226      0.041    19.4305  85.912473     1.5035    -0.2715     6.5007 9.7627e+02  0.000e+00
        227      0.036    19.4275  85.912474     1.2610     0.4344     6.5225 1.0961e+03  0.000e+00
        228      0.038    19.4278  85.942212     1.2125    -0.4887     6.5474 1.1562e+03  0.000e+00
        229      0.046    19.4389  85.971946     1.4065    -0.3258     6.5691 1.1473e+03  0.000e+00
        230      0.056    19.4699  86.061152     4.9470    -0.2896     6.5884 1.1902e+03  0.000e+00
        231      0.060    19.4977  86.001668     1.6005     1.3394     6.6014 1.2631e+03  0.000e+00
        232      0.061    19.5112  85.971926     7.2750     1.4480     6.6099 7.6017e+02  0.000e+00
        233      0.062    19.5192  86.061138    -0.6305     0.2353     6.5901 7.3354e+02  0.000e+00
        234      0.068    19.5316  86.061135     3.2980     0.7059     6.5493 1.1064e+03  0.000e+00
        235      0.083    19.5461  86.120607     3.2010    -0.6154     6.5181 8.4305e+02  0.000e+00
        236      0.111    19.5569  86.150342     1.7460    -0.0724     6.5384 1.1285e+03  0.000e+00
        237      0.126    19.5627  86.061126     3.1040    -0.3258     6.6157 7.9222e+02  0.000e+00
        238      0.125    19.5637  86.090864     1.6005     0.4887     6.7120 1.4562e+03  0.000e+00
        239      0.125    19.5663  86.061125     1.2610    -0.1991     6.8439 7.3949e+02  0.000e+00
        240      0.122    19.5700  86.120600     1.1155     0.3258     7.0015 1.1794e+03  0.000e+00
        241      0.120    19.5734  86.090861     1.0670     0.2353     7.1669 1.3182e+03  0.000e+00
        242      0.120    19.5756  86.120599     0.5820     0.4344     7.2921 1.2941e+03  0.000e+00
        243      0.120    19.5775  86.150336     0.6305     0.1448     7.3808 1.3230e+03  0.000e+00
        244      0.120    19.5787  86.180074     0.8245     0.3077     7.4010 1.2457e+03  0.000e+00
        245      0.121    19.5803  86.120597     0.8245     0.4525     7.3524 1.4458e+03  0.000e+00
        246      0.119    19.5815  86.090859     0.8245     0.1267     7.2615 7.2712e+02  0.000e+00
        247      0.125    19.5823  86.120597     0.0970     0.2896     7.1425 1.2459e+03  0.000e+00
        248      0.123    19.5835  86.061120     0.7275     0.1810     6.9775 8.6026e+02  0.000e+00
        249      0.124    19.5839  86.090858     0.9215     0.2896     6.8061 1.4349e+03  0.000e+00
        250      0.118    19.5821  86.120597     0.9700     0.2172     6.6526 8.1095e+02  0.000e+00
        251      0.118    19.5779  86.150336     0.2425     0.2715     6.5089 1.1289e+03  0.000e+00
        252      0.124    19.5765  86.120599     0.7275     0.2715     6.3840 1.4724e+03  0.000e+00
        253      0.131    19.5778  86.180075     0.8730     0.1991     6.3089 1.1345e+03  0.000e+00
        254      0.131    19.5791  86.090860     0.8245     0.2534     6.2991 1.0948e+03  0.000e+00
        255      0.122    19.5769  86.061122     0.8245     0.2534     6.3362 1.6212e+03  0.000e+00
        256      0.107    19.5696  86.090862     0.7275     0.2353     6.3948 1.1321e+03  0.000e+00
        257      0.102    19.5669  86.120601     0.6305     0.2534     6.4240 1.1976e+03  0.000e+00
        258      0.106    19.5680  86.120601     0.3880     0.2896     6.4256 1.4818e+03  0.000e+00
        259      0.121    19.5703  86.150338     0.8730     0.3620     6.4184 1.0415e+03  0.000e+00
        260      0.126    19.5739  86.120599     0.8730     0.2896     6.4335 1.1483e+03  0.000e+00
        261      0.119    19.5745  86.031385     0.8730     0.2353     6.4514 1.0167e+03  0.000e+00
        262      0.110    19.5703  86.061124     0.8245     0.3258     6.4658 1.4268e+03  0.000e+00
        263      0.107    19.5695  86.061124     0.6790     0.3258     6.4711 1.1299e+03  0.000e+00
        264      0.117    19.5699  86.150338     0.6790     0.2896     6.4516 1.0457e+03  0.000e+00
        265      0.128    19.5722  86.120600     0.7275     0.2715     6.4225 1.8509e+03  0.000e+00
        266      0.132    19.5758  86.120599     0.7275     0.2715     6.3851 1.0067e+03  0.000e+00
        267      0.128    19.5765  86.090861     0.8730     0.1629     6.3535 9.5255e+02  0.000e+00
        268      0.117    19.5726  86.061123     0.7760     0.3077     6.3190 1.0362e+03  0.000e+00
        269      0.108    19.5711  86.001648     0.8245     0.3439     6.2767 7.9375e+02  0.000e+00
        270      0.107    19.5718  86.031386     0.9700     0.2534     6.2265 9.1161e+02  0.000e+00
        271      0.113    19.5726  86.120600     0.8245     0.3439     6.1779 8.9637e+02  0.000e+00
        272      0.123    19.5743  86.150337     0.7760     0.2715     6.1208 9.1691e+02  0.000e+00
        273      0.129    19.5763  86.061123    -0.1940     0.5430     6.0773 7.9865e+02  0.000e+00
        274      0.123    19.5764  86.001647    -0.2425     0.3258     6.0346 1.0780e+03  0.000e+00
        275      0.117    19.5751  86.031385     0.3880     0.7421     5.9989 6.2373e+02  0.000e+00
        276      0.109    19.5746  86.031385     3.5405     0.3982     5.9689 9.0714e+02  0.000e+00
        277      0.109    19.5735  86.001647     0.5820     0.8326     5.9388 8.2012e+02  0.000e+00
        278      0.118    19.5700  86.031386     0.5820     0.0362     5.9125 7.6473e+02  0.000e+00
        279      0.129    19.5667  85.971911     0.7760     0.3077     5.8921 7.4523e+02  0.000e+00
        280      0.131    19.5647  86.061126     0.6790     0.2353     5.8774 7.8350e+02  0.000e+00
        281      0.125    19.5614  85.971913     1.2125     0.3439     5.8718 6.1686e+02  0.000e+00
        282      0.116    19.5575  86.001652     0.9215     0.2534     5.8690 7.7093e+02  0.000e+00
        283      0.113    19.5553  85.971914     1.1640     0.1448     5.8587 8.0910e+02  0.000e+00
        284      0.119    19.5540  85.971915     0.4365     0.4344     5.8376 7.6446e+02  0.000e+00
        285      0.129    19.5527  86.001653     0.8730     0.3801     5.8129 9.7045e+02  0.000e+00
        286      0.133    19.5523  86.031391     0.6790     0.1810     5.7958 1.0404e+03  0.000e+00
        287      0.129    19.5524  85.942178     0.5820     0.2353     5.7865 1.0691e+03  0.000e+00
        288      0.121    19.5513  85.971916     0.9215     0.2353     5.7761 8.2431e+02  0.000e+00
        289      0.116    19.5495  85.971916     0.6790     0.2172     5.7505 7.8198e+02  0.000e+00
        290      0.119    19.5492  86.061130     0.5820     0.3077     5.7337 1.0313e+03  0.000e+00
        291      0.124    19.5500  86.031392     0.6790     0.2715     5.7105 6.2416e+02  0.000e+00
        292      0.127    19.5511  86.001654     0.6790     0.1991     5.6946 8.0924e+02  0.000e+00
        293      0.128    19.5536  86.031391     0.5820     0.2896     5.6805 7.8474e+02  0.000e+00
        294      0.121    19.5553  86.031390     0.6305     0.2715     5.6698 7.8764e+02  0.000e+00
        295      0.118    19.5542  86.001653     0.9700     0.2715     5.6522 6.5082e+02  0.000e+00
        296      0.119    19.5530  86.031391     0.6790     0.2172     5.6338 8.0216e+02  0.000e+00
        297      0.124    19.5540  86.061129     0.8245     0.2534     5.6118 8.7045e+02  0.000e+00
        298      0.125    19.5574  86.061128     0.6790     0.3077     5.5859 9.0889e+02  0.000e+00
        299      0.126    19.5608  86.031389     0.6790     0.1991     5.5782 8.4990e+02  0.000e+00
        300      0.123    19.5619  85.942175     0.9700     0.1629     5.5738 8.2300e+02  0.000e+00
        301      0.118    19.5606  86.061127     0.7760     0.2353     5.5706 1.0183e+03  0.000e+00
        302      0.118    19.5611  86.299032     0.7275     0.2715     5.5746 1.1683e+03  0.000e+00
        303      0.124    19.5679  86.239554     0.8245     0.1991     5.6706 1.2291e+03  0.000e+00
        304      0.129    19.5757  86.239552     1.0185     0.2715     6.1734 1.0466e+03  0.000e+00
        305      0.128    19.5809  86.239550     0.8730     0.3439     7.0145 9.7421e+02  0.000e+00
        306      0.123    19.5838  86.239549     0.6790     0.2172     7.9684 1.1479e+03  0.000e+00
        307      0.118    19.5857  86.239549     0.7275     0.3982     8.8742 1.0002e+03  0.000e+00
        308      0.117    19.5865  86.239548     1.9400    -0.3258     9.6284 1.0614e+03  0.000e+00
        309      0.125    19.5873  86.299025     0.1455     0.9050    10.1724 1.0078e+03  0.000e+00
        310      0.131    19.5878  86.328763     1.2610     0.1086    10.4521 1.3844e+03  0.000e+00
        311      0.129    19.5884  86.239548     1.3095    -0.1629    10.4457 1.1965e+03  0.000e+00
        312      0.123    19.5886  86.239548     0.1940    -0.1448    10.1865 1.1457e+03  0.000e+00
        313      0.117    19.5890  86.239548     1.1640     0.7059     9.8155 1.4437e+03  0.000e+00
        314      0.115    19.5895  86.299024     1.6490     0.3077     9.4602 1.1564e+03  0.000e+00
        315      0.125    19.5902  86.239547     0.8245    -0.0543     9.1888 8.3495e+02  0.000e+00
        316      0.128    19.5913  86.239547     0.2910     0.2172     8.9787 1.2324e+03  0.000e+00
        317      0.132    19.5924  86.299024     0.9215     0.1810     8.8274 9.3316e+02  0.000e+00
        318      0.122    19.5927  86.299023     1.0670     0.0362     8.7230 9.6790e+02  0.000e+00
        319      0.119    19.5931  86.299023     0.8730     0.1810     8.6403 1.3469e+03  0.000e+00
        320      0.117    19.5935  86.239546     0.9215     0.3982     8.5742 1.0781e+03  0.000e+00
        321      0.123    19.5935  86.239547     1.0185     0.2353     8.5196 9.7011e+02  0.000e+00
        322      0.129    19.5935  86.299023     0.3395     0.3801     8.4774 1.3172e+03  0.000e+00
        323      0.129    19.5935  86.239547     0.9700     0.0905     8.4539 1.0273e+03  0.000e+00
        324      0.121    19.5937  86.299023     1.0670     0.2172     8.4382 9.9619e+02  0.000e+00
        325      0.102    19.5943  86.358500     0.2910     0.2715     8.4206 1.4521e+03  0.000e+00
        326      0.096    19.5944  86.299023     0.9215     0.2534     8.4128 1.0407e+03  0.000e+00
        327      0.101    19.5943  86.299023    -0.5820     0.5973     8.4109 1.4124e+03  0.000e+00
        328      0.107    19.5944  86.299023     1.1155     0.4163     8.4045 1.0291e+03  0.000e+00
        329      0.116    19.5948  86.239546    -0.1940     0.3620     8.3979 1.2726e+03  0.000e+00
        330      0.112    19.5951  86.299023     1.5035    -0.4344     8.3869 1.2135e+03  0.000e+00
        331      0.105    19.5952  86.299023     0.5335     0.0362     8.3850 9.1756e+02  0.000e+00
        332      0.097    19.5953  86.299022    -0.1455     0.1267     8.3817 1.0797e+03  0.000e+00
        333      0.099    19.5955  86.239546    -0.9215    -0.0905     8.3797 1.3802e+03  0.000e+00
        334      0.103    19.5955  86.299022     1.7460     0.3077     8.3752 1.0854e+03  0.000e+00
        335      0.106    19.5956  86.299022     1.0185     0.6154     8.3836 1.1728e+03  0.000e+00
        336      0.110    19.5960  86.239546     0.4365     0.3258     8.3918 9.7695e+02  0.000e+00
        337      0.106    19.5970  86.299022     1.0670     0.0000     8.3984 8.2257e+02  0.000e+00
        338      0.104    19.5986  86.299022     0.2910     0.1086     8.3942 1.3361e+03  0.000e+00
        339      0.103    19.5993  86.239545     1.6005    -0.0724     8.3947 1.0926e+03  0.000e+00
        340      0.097    19.5986  86.299022     0.1940     0.3801     8.4024 9.7867e+02  0.000e+00
        341      0.099    19.5979  86.299022     1.6975     0.3982     8.3971 1.0219e+03  0.000e+00
        342      0.105    19.5973  86.299022     1.6975     0.0543     8.3895 1.0089e+03  0.000e+00
        343      0.105    19.5974  86.299022     0.8730     0.1810     8.3719 7.7746e+02  0.000e+00
        344      0.108    19.5977  86.239545     0.9700    -0.1267     8.3749 8.3027e+02  0.000e+00
        345      0.104    19.5979  86.299022     0.6790     0.0362     8.3772 7.7446e+02  0.000e+00
        346      0.102    19.5979  86.299022     0.4850     0.1810     8.3800 8.8432e+02  0.000e+00
        347      0.101    19.5976  86.299022     0.9700     0.3982     8.3896 9.4854e+02  0.000e+00
        348      0.105    19.5972  86.239545     0.6790     0.3077     8.3934 1.3817e+03  0.000e+00
        349      0.113    19.5975  86.299022     1.0185     0.2172     8.4020 1.0197e+03  0.000e+00
        350      0.112    19.5975  86.299022     0.4365     0.0000     8.4031 1.1153e+03  0.000e+00
        351      0.108    19.5976  86.239545     1.0185     0.0181     8.4063 1.3740e+03  0.000e+00
        352      0.101    19.5974  86.299022     1.2125     0.3258     8.4008 1.1518e+03  0.000e+00
        353      0.095    19.5971  86.299022     0.5820    -0.1448     8.3862 1.1593e+03  0.000e+00
        354      0.101    19.5966  86.239545     1.5035     0.2172     8.3853 1.4964e+03  0.000e+00
        355      0.111    19.5963  86.239546     0.0970     0.1629     8.3853 1.2814e+03  0.000e+00
        356      0.112    19.5968  86.239546     0.0970     0.6878     8.3817 1.5905e+03  0.000e+00
        357      0.109    19.5976  86.239545     0.8245     0.4706     8.3798 1.1790e+03  0.000e+00
        358      0.105    19.5975  86.239545     0.6305     0.2534     8.3799 1.2782e+03  0.000e+00
        359      0.106    19.5973  86.299022     0.8245     0.2715     8.3718 1.0000e+03  0.000e+00
        360      0.104    19.5972  86.239545     0.7760     0.1810     8.3746 1.3349e+03  0.000e+00
        361      0.106    19.5970  86.239545     0.7275     0.2534     8.3782 1.1136e+03  0.000e+00
        362      0.106    19.5968  86.239545     0.7275     0.2353     8.3808 1.2465e+03  0.000e+00
        363      0.101    19.5966  86.299022     0.8730     0.2534     8.3862 9.0937e+02  0.000e+00
        364      0.094    19.5961  86.299022     0.7760     0.2353     8.3862 1.3385e+03  0.000e+00
        365      0.089    19.5957  86.239546     0.8245     0.2896     8.3805 1.2143e+03  0.000e+00
        366      0.089    19.5951  86.299022     0.8245     0.2534     8.3811 1.6622e+03  0.000e+00
        367      0.089    19.5949  86.239546     0.7760     0.2534     8.3875 1.2470e+03  0.000e+00
        368      0.084    19.5949  86.299022     0.7275     0.1991     8.3842 9.8436e+02  0.000e+00
        369      0.081    19.5948  86.239546     0.7275     0.2353     8.3845 1.5020e+03  0.000e+00
        370      0.079    19.5950  86.299022     0.6790     0.2715     8.3833 9.6501e+02  0.000e+00
        371      0.084    19.5960  86.299022     0.7760     0.2353     8.3883 1.3875e+03  0.000e+00
        372      0.086    19.5965  86.239545     0.7760     0.2353     8.3969 1.1738e+03  0.000e+00
        373      0.084    19.5970  86.299022     0.7760     0.2715     8.3978 1.2313e+03  0.000e+00
        374      0.091    19.5975  86.239545     0.8245     0.2353     8.3995 1.1489e+03  0.000e+00
        375      0.096    19.5978  86.328760     0.8245     0.2715     8.4003 1.1498e+03  0.000e+00
        376      0.101    19.5980  86.239545     0.7275     0.2172     8.4048 1.4171e+03  0.000e+00
        377      0.107    19.5979  86.299022     0.8245     0.2353     8.4053 1.1279e+03  0.000e+00
        378      0.109    19.5979  86.239545     0.6790     0.2353     8.4014 1.3202e+03  0.000e+00
        379      0.107    19.5976  86.299022     0.6790     0.2534     8.3969 1.3394e+03  0.000e+00
        380      0.102    19.5974  86.239545     0.3880     0.2896     8.3968 1.0875e+03  0.000e+00
        381      0.097    19.5975  86.239545     0.7275     0.1991     8.4012 1.3326e+03  0.000e+00
        382      0.108    19.5973  86.299022     0.8245     0.2534     8.4100 1.3517e+03  0.000e+00
        383      0.127    19.5973  86.209807     0.7760     0.2353     8.4140 8.5304e+02  0.000e+00
        384      0.132    19.5972  86.299022     0.7760     0.2715     8.4113 8.8448e+02  0.000e+00
        385      0.117    19.5970  86.239546     0.8245     0.1991     8.4098 1.3488e+03  0.000e+00
        386      0.090    19.5968  86.239545     0.9700     0.2534     8.4045 1.5855e+03  0.000e+00
        387      0.079    19.5963  86.239545     0.8245     0.2353     8.4018 1.3560e+03  0.000e+00
        388      0.100    19.5956  86.299022     0.7760     0.2715     8.4002 1.3380e+03  0.000e+00
        389      0.121    19.5953  86.299023     0.8245     0.2534     8.4006 1.2472e+03  0.000e+00
        390      0.129    19.5955  86.299023     0.8730     0.2534     8.4024 1.2250e+03  0.000e+00
        391      0.120    19.5958  86.299023     0.7275     0.2715     8.4053 1.6494e+03  0.000e+00
        392      0.098    19.5961  86.299022     0.7275     0.2715     8.4052 1.2538e+03  0.000e+00
        393      0.087    19.5960  86.299022     0.6790     0.2715     8.4110 1.0919e+03  0.000e+00
        394      0.100    19.5954  86.299022     0.8245     0.2715     8.4096 9.5539e+02  0.000e+00
        395      0.114    19.5953  86.239546     0.7760     0.2896     8.4093 1.0833e+03  0.000e+00
        396      0.124    19.5958  86.239546     0.8730     0.2534     8.4079 1.1337e+03  0.000e+00
        397      0.113    19.5959  86.299022     0.7275     0.2172     8.4076 1.0553e+03  0.000e+00
        398      0.098    19.5961  86.328761     0.8245     0.2534     8.4118 1.2904e+03  0.000e+00
        399      0.095    19.5963  86.299022     0.6305     0.2353     8.4173 9.0300e+02  0.000e+00
        400      0.107    19.5961  86.239546     0.8730     0.2353     8.4221 1.2680e+03  0.000e+00
        401      0.122    19.5959  86.239546     0.7760     0.2172     8.4127 1.0360e+03  0.000e+00
        402      0.118    19.5961  86.299022     0.7275     0.2353     8.4078 1.3432e+03  0.000e+00
        403      0.106    19.5969  86.239545     0.7760     0.2715     8.4009 1.1599e+03  0.000e+00
        404      0.098    19.5971  86.239545     0.7275     0.2353     8.3857 1.5415e+03  0.000e+00
        405      0.102    19.5972  86.299022     0.7275     0.2353     8.3691 1.2056e+03  0.000e+00
        406      0.109    19.5967  86.299022     0.7275     0.2715     8.3655 1.6255e+03  0.000e+00
        407      0.113    19.5966  86.239546     0.8245     0.2172     8.3730 9.5322e+02  0.000e+00
        408      0.106    19.5967  86.328761     0.7760     0.2534     8.3835 1.0978e+03  0.000e+00
        409      0.103    19.5968  86.239545     0.7275     0.2715     8.3968 1.2287e+03  0.000e+00
        410      0.100    19.5971  86.239545     0.8245     0.2353     8.4071 8.5694e+02  0.000e+00
        411      0.103    19.5972  86.299022     0.8245     0.2353     8.4077 8.7828e+02  0.000e+00
        412      0.107    19.5973  86.239545     0.7275     0.2534     8.4127 1.6085e+03  0.000e+00
        413      0.108    19.5975  86.239545     0.7760     0.2715     8.4084 6.9796e+02  0.000e+00
        414      0.104    19.5975  86.299022     0.7275     0.1991     8.4019 1.1299e+03  0.000e+00
        415      0.105    19.5971  86.239545     0.9215     0.2715     8.3926 1.3172e+03  0.000e+00
        416      0.106    19.5968  86.299022     0.8245     0.1629     8.3908 1.0131e+03  0.000e+00
        417      0.102    19.5969  86.299022     0.8730     0.1991     8.3838 1.3853e+03  0.000e+00
        418      0.101    19.5966  86.239545     0.7275     0.1991     8.3816 1.3469e+03  0.000e+00
        419      0.104    19.5970  86.209807     0.7760     0.2534     8.3887 1.5832e+03  0.000e+00
        420      0.108    19.5972  86.299022     0.7275     0.2534     8.3967 1.0680e+03  0.000e+00
        421      0.104    19.5977  86.239545     0.7760     0.2534     8.4031 1.3281e+03  0.000e+00
        422      0.104    19.5979  86.299022     0.7275     0.2172     8.4054 1.2950e+03  0.000e+00
        423      0.104    19.5980  86.299022     0.9215     0.1810     8.4089 9.4471e+02  0.000e+00
        424      0.102    19.5979  86.239545     0.8245     0.2172     8.4095 1.3307e+03  0.000e+00
        425      0.105    19.5973  86.239545     0.7760     0.1810     8.4080 1.4008e+03  0.000e+00
        426      0.110    19.5967  86.239546     0.8245     0.2534     8.3968 1.3279e+03  0.000e+00
        427      0.113    19.5966  86.239546     0.7275     0.1991     8.3860 1.1187e+03  0.000e+00
        428      0.108    19.5962  86.299022     1.0185     0.2172     8.3783 1.0940e+03  0.000e+00
        429      0.110    19.5958  86.239546     0.7275     0.2353     8.3842 1.3073e+03  0.000e+00
        430      0.112    19.5956  86.239546     0.8245     0.2353     8.3853 9.1611e+02  0.000e+00
        431      0.113    19.5960  86.239546     0.7275     0.2353     8.3947 6.4061e+02  0.000e+00
        432      0.106    19.5967  86.239546     0.7275     0.2896     8.4039 9.0110e+02  0.000e+00
        433      0.103    19.5972  86.239545     0.7275     0.2534     8.4113 1.0729e+03  0.000e+00
        434      0.108    19.5978  86.299022     0.8730     0.1448     8.4188 1.1064e+03  0.000e+00
        435      0.110    19.5982  86.299022     0.8730     0.2896     8.4111 8.9842e+02  0.000e+00
        436      0.109    19.5986  86.239545     0.6305     0.1810     8.4048 9.5623e+02  0.000e+00
        437      0.105    19.5989  86.299022     0.7760     0.2896     8.3957 7.2648e+02  0.000e+00
        438      0.100    19.5999  86.299021     0.7275     0.2172     8.3897 1.5283e+03  0.000e+00
        439      0.107    19.6000  86.299021     0.7760     0.2353     8.3895 1.0882e+03  0.000e+00
        440      0.114    19.6005  86.299021     0.7275     0.1991     8.3986 1.3094e+03  0.000e+00
        441      0.117    19.6006  86.239544     0.8245     0.1991     8.4019 1.4724e+03  0.000e+00
        442      0.111    19.6003  86.299021     0.7760     0.2534     8.4136 1.2257e+03  0.000e+00
        443      0.102    19.5999  86.299021     0.7275     0.2896     8.4200 1.0915e+03  0.000e+00
        444      0.099    19.5999  86.299021     0.7760     0.2353     8.4178 1.1179e+03  0.000e+00
        445      0.110    19.6000  86.299021     0.7760     0.1991     8.4160 1.1489e+03  0.000e+00
        446      0.118    19.6010  86.299021     0.9215     0.2353     8.4106 7.7856e+02  0.000e+00
        447      0.117    19.6021  86.239544     0.8245     0.2534     8.4081 7.5512e+02  0.000e+00
        448      0.106    19.6027  86.299020     0.5820     0.1810     8.4074 1.1562e+03  0.000e+00
        449      0.096    19.6027  86.239544     0.7760     0.2534     8.4046 1.1246e+03  0.000e+00
        450      0.102    19.6024  86.239544     0.8245     0.2353     8.4076 8.9968e+02  0.000e+00
        451      0.111    19.6027  86.239544     0.8245     0.2353     8.4091 7.1120e+02  0.000e+00
        452      0.111    19.6030  86.299020     0.6790     0.2715     8.3961 6.1028e+02  0.000e+00
        453      0.105    19.6032  86.239544     0.8730     0.2534     8.3874 7.1008e+02  0.000e+00
        454      0.097    19.6036  86.299020     0.7760     0.2172     8.3738 7.5804e+02  0.000e+00
        455      0.093    19.6034  86.299020     0.8730     0.2172     8.3663 7.9459e+02  0.000e+00
        456      0.104    19.6035  86.239544     0.7760     0.2715     8.3641 1.0797e+03  0.000e+00
        457      0.113    19.6031  86.239544     0.6790     0.2353     8.3675 7.3975e+02  0.000e+00
        458      0.111    19.6029  86.299020     1.0185     0.2172     8.3787 6.9185e+02  0.000e+00
        459      0.100    19.6031  86.358497     0.8245     0.2534     8.3952 7.3405e+02  0.000e+00
        460      0.094    19.6031  86.239544     0.9700     0.2172     8.4122 1.0512e+03  0.000e+00
        461      0.096    19.6033  86.299020     0.7275     0.2534     8.4175 1.0094e+03  0.000e+00
        462      0.107    19.6034  86.239544     0.7760     0.2715     8.4170 1.1144e+03  0.000e+00
        463      0.109    19.6032  86.239544     0.7760     0.2172     8.4137 7.1108e+02  0.000e+00
        464      0.102    19.6026  86.239544     0.7275     0.1991     8.4153 1.1367e+03  0.000e+00
        465      0.096    19.6023  86.239544     0.8730     0.2172     8.4129 8.7936e+02  0.000e+00
        466      0.096    19.6023  86.299020     0.7760     0.2715     8.4096 1.0499e+03  0.000e+00
        467      0.108    19.6025  86.299021     0.8245     0.2353     8.4070 7.8598e+02  0.000e+00
        468      0.109    19.6031  86.299020     0.6790     0.2534     8.4082 6.9686e+02  0.000e+00
        469      0.101    19.6035  86.239544     0.9215     0.2715     8.4151 9.0110e+02  0.000e+00
        470      0.094    19.6031  86.299020     0.9215     0.2172     8.4102 1.0313e+03  0.000e+00
        471      0.093    19.6030  86.299020     0.6305     0.2353     8.4161 7.9724e+02  0.000e+00
        472      0.103    19.6025  86.299020     0.5820     0.2353     8.4096 8.2431e+02  0.000e+00
        473      0.112    19.6025  86.299021     0.7275     0.2534     8.4131 7.6648e+02  0.000e+00
        474      0.110    19.6026  86.299021     0.9215     0.2353     8.4154 6.7445e+02  0.000e+00
        475      0.094    19.6024  86.239544     1.0185     0.3077     8.4084 8.7274e+02  0.000e+00
        476      0.089    19.6025  86.299020     0.1455     0.3439     8.3966 9.5506e+02  0.000e+00
        477      0.098    19.6026  86.299020     0.1940     0.2353     8.3897 8.4751e+02  0.000e+00
        478      0.109    19.6030  86.299020     1.2125     0.4706     8.3830 6.5598e+02  0.000e+00
        479      0.106    19.6037  86.299020     0.8245     0.2534     8.3869 7.7514e+02  0.000e+00
        480      0.098    19.6039  86.299020     0.6305     0.1448     8.3912 9.8211e+02  0.000e+00
        481      0.097    19.6042  86.299020     0.7275     0.2715     8.4010 8.9526e+02  0.000e+00
        482      0.102    19.6040  86.299020     0.6790     0.3077     8.4006 1.2454e+03  0.000e+00
        483      0.102    19.6043  86.209805     0.6305     0.2353     8.4014 1.0041e+03  0.000e+00
        484      0.100    19.6042  86.299020     0.6305     0.2353     8.4033 8.8029e+02  0.000e+00
        485      0.098    19.6039  86.299020     0.9215     0.2715     8.3991 7.9710e+02  0.000e+00
        486      0.096    19.6037  86.299020     0.7760     0.2534     8.3915 1.0105e+03  0.000e+00
        487      0.094    19.6035  86.358497     0.7760     0.2534     8.3842 1.1029e+03  0.000e+00
        488      0.095    19.6038  86.239543     0.8730     0.2353     8.3777 9.7884e+02  0.000e+00
        489      0.101    19.6043  86.239543     0.7760     0.2172     8.3673 1.1798e+03  0.000e+00
        490      0.096    19.6039  86.299020     0.8730     0.1991     8.3686 7.4904e+02  0.000e+00
        491      0.095    19.6028  86.239544     0.7760     0.1448     8.3780 1.0275e+03  0.000e+00
        492      0.095    19.6020  86.239544     0.9215     0.2353     8.3975 1.3279e+03  0.000e+00
        493      0.100    19.6022  86.299021     0.5335     0.1448     8.4152 1.5653e+03  0.000e+00
        494      0.102    19.6026  86.299020     0.7275     0.2896     8.4205 9.5405e+02  0.000e+00
        495      0.096    19.6030  86.239544     0.7275     0.2353     8.4189 1.3740e+03  0.000e+00
        496      0.094    19.6042  86.299020     0.8730     0.1810     8.4215 1.0655e+03  0.000e+00
        497      0.092    19.6053  86.299020     0.6790     0.2896     8.4181 1.2916e+03  0.000e+00
        498      0.095    19.6063  86.299019     0.9700     0.2534     8.4146 1.4491e+03  0.000e+00
        499      0.101    19.6071  86.299019     0.7275     0.1448     8.4169 1.2056e+03  0.000e+00
        500      0.097    19.6079  86.239542     0.5820     0.2172     8.4276 1.2518e+03  0.000e+00
        501      0.095    19.6081  86.239542     0.5820     0.2172     8.4339 1.2602e+03  0.000e+00
        502      0.096    19.6076  86.299019     0.8730     0.2172     8.4322 1.6170e+03  0.000e+00
        503      0.097    19.6062  86.299019     0.6790     0.0543     8.4381 1.4794e+03  0.000e+00
        504      0.093    19.6052  86.239543     0.7275     0.1991     8.4349 1.0949e+03  0.000e+00
        505      0.091    19.6043  86.299020     0.9215     0.2534     8.4315 1.0842e+03  0.000e+00
        506      0.091    19.6039  86.299020     0.7275     0.2534     8.4229 1.3175e+03  0.000e+00
        507      0.095    19.6036  86.299020     0.7275     0.1991     8.4056 1.6958e+03  0.000e+00
        508      0.101    19.6032  86.299020     0.6790     0.2172     8.3957 1.7602e+03  0.000e+00
        509      0.096    19.6037  86.299020     0.9215     0.1810     8.3989 1.5402e+03  0.000e+00
        510      0.088    19.6041  86.299020     1.0185     0.1991     8.4039 1.0930e+03  0.000e+00
        511      0.084    19.6046  86.299020     0.9215     0.1448     8.4062 1.1447e+03  0.000e+00
        512      0.093    19.6050  86.239543     0.7760     0.2172     8.4129 1.2673e+03  0.000e+00
        513      0.105    19.6058  86.299020     0.5820     0.2534     8.4219 1.4807e+03  0.000e+00
        514      0.107    19.6068  86.299019     0.6790     0.2715     8.4283 1.1275e+03  0.000e+00
        515      0.094    19.6077  86.299019     0.8730     0.2353     8.4341 1.0262e+03  0.000e+00
        516      0.086    19.6082  86.299019     0.6305     0.1629     8.4359 1.0655e+03  0.000e+00
        517      0.091    19.6081  86.299019     0.8245     0.2353     8.4329 1.3242e+03  0.000e+00
        518      0.104    19.6083  86.299019     1.0185     0.1991     8.4250 1.7280e+03  0.000e+00
        519      0.120    19.6086  86.299019     0.9215     0.1629     8.4206 1.0041e+03  0.000e+00
        520      0.120    19.6087  86.299019     0.6790     0.2353     8.4271 1.1403e+03  0.000e+00
        521      0.112    19.6086  86.239542     0.7760     0.2534     8.4257 1.4498e+03  0.000e+00
        522      0.103    19.6085  86.299019     0.6790     0.2534     8.4257 1.1407e+03  0.000e+00
        523      0.103    19.6085  86.299019     0.6305     0.1086     8.4245 1.1475e+03  0.000e+00
        524      0.114    19.6081  86.239542     0.7760     0.2353     8.4253 1.2218e+03  0.000e+00
        525      0.124    19.6067  86.239543     0.5820     0.1991     8.4248 1.0196e+03  0.000e+00
        526      0.127    19.6059  86.299020     0.7275     0.2715     8.4237 1.0672e+03  0.000e+00
        527      0.129    19.6064  86.299020     0.9215     0.1991     8.4201 1.1224e+03  0.000e+00
        528      0.137    19.6066  86.358496     0.8730     0.3077     8.4201 1.0036e+03  0.000e+00
        529      0.139    19.6071  86.299019     0.7760     0.1991     8.4189 9.7592e+02  0.000e+00
        530      0.137    19.6075  86.299019     0.7760     0.2353     8.4095 9.1017e+02  0.000e+00
        531      0.134    19.6077  86.239543     0.9215     0.2172     8.4056 1.3354e+03  0.000e+00
        532      0.137    19.6076  86.299019     0.7760     0.2353     8.3965 1.5486e+03  0.000e+00
        533      0.140    19.6077  86.299019     0.7760     0.2353     8.3907 8.4945e+02  0.000e+00
        534      0.142    19.6073  86.239543     0.9700     0.2534     8.3887 9.0475e+02  0.000e+00
        535      0.142    19.6068  86.299020     0.8730     0.2353     8.3923 1.0165e+03  0.000e+00
        536      0.140    19.6063  86.239543     0.6790     0.2715     8.3914 7.4589e+02  0.000e+00
        537      0.134    19.6058  86.299020     0.7275     0.2353     8.4021 8.9275e+02  0.000e+00
        538      0.122    19.6058  86.239543     0.7760     0.2353     8.4120 6.6937e+02  0.000e+00
        539      0.119    19.6055  86.299020     0.8245     0.2715     8.4167 8.8634e+02  0.000e+00
        540      0.123    19.6055  86.239543     0.7760     0.2172     8.4189 6.5357e+02  0.000e+00
        541      0.133    19.6054  86.299020     0.6790     0.2896     8.4220 7.7883e+02  0.000e+00
        542      0.129    19.6051  86.239543     0.6790     0.1991     8.4205 7.6688e+02  0.000e+00
        543      0.123    19.6048  86.299020     0.6790     0.2534     8.4235 7.6985e+02  0.000e+00
        544      0.111    19.6043  86.239543     0.7760     0.2172     8.4321 9.3464e+02  0.000e+00
        545      0.116    19.6041  86.299020     0.7275     0.2353     8.4240 9.5893e+02  0.000e+00
        546      0.134    19.6040  86.239544     0.8730     0.2353     8.4220 7.1183e+02  0.000e+00
        547      0.148    19.6039  86.299020     0.6790     0.2172     8.4299 1.1169e+03  0.000e+00
        548      0.139    19.6039  86.239544     0.7275     0.2715     8.4317 6.9992e+02  0.000e+00
        549      0.119    19.6043  86.299020     0.9215     0.2353     8.4351 1.1455e+03  0.000e+00
        550      0.111    19.6046  86.299020     0.6305     0.2353     8.4307 9.6011e+02  0.000e+00
        551      0.122    19.6050  86.299020     0.8730     0.2172     8.4220 1.3747e+03  0.000e+00
        552      0.133    19.6050  86.239543     0.8245     0.2715     8.4187 1.0356e+03  0.000e+00
        553      0.140    19.6052  86.299020     0.8245     0.2353     8.4191 1.5054e+03  0.000e+00
        554      0.132    19.6055  86.299020     0.6305     0.2353     8.4300 7.5115e+02  0.000e+00
        555      0.124    19.6055  86.239543     0.6790     0.2353     8.4249 1.0223e+03  0.000e+00
        556      0.121    19.6055  86.239543     0.6305     0.3077     8.4207 9.6433e+02  0.000e+00
        557      0.127    19.6054  86.299020     0.7275     0.2353     8.4137 1.1126e+03  0.000e+00
        558      0.132    19.6053  86.239543     0.8245     0.2896     8.4129 1.0296e+03  0.000e+00
        559      0.134    19.6049  86.239543     0.7760     0.2534     8.4094 1.0896e+03  0.000e+00
        560      0.125    19.6047  86.299020     0.6790     0.2353     8.4071 1.0429e+03  0.000e+00
        561      0.119    19.6044  86.239543     0.7275     0.2896     8.4132 1.0903e+03  0.000e+00
        562      0.120    19.6040  86.299020     0.7760     0.3258     8.4176 1.6158e+03  0.000e+00
        563      0.130    19.6036  86.299020     0.9215     0.3258     8.4315 1.2724e+03  0.000e+00
        564      0.139    19.6031  86.239544     0.9215     0.2534     8.4395 1.2278e+03  0.000e+00
        565      0.133    19.6021  86.299021     1.4065     0.3620     8.4472 1.0501e+03  0.000e+00
        566      0.117    19.6015  86.239544     2.0855     0.4887     8.4405 1.0486e+03  0.000e+00
        567      0.117    19.6013  86.358498     0.9215     0.4163     8.4333 1.1724e+03  0.000e+00
        568      0.124    19.6007  86.239545     1.1155     0.2172     8.4215 1.3486e+03  0.000e+00
        569      0.133    19.6006  86.239545     0.5335     0.2353     8.4141 1.0911e+03  0.000e+00
        570      0.130    19.6002  86.239545     1.6975     0.3620     8.4079 1.1902e+03  0.000e+00
        571      0.128    19.6008  86.299021     0.7275     0.0905     8.4044 1.0353e+03  0.000e+00
        572      0.138    19.6016  86.299021     0.7275     0.3258     8.4032 1.0373e+03  0.000e+00
        573      0.197    19.6026  86.328760     0.7275     0.4163     8.3986 1.6175e+03  0.000e+00
        574      0.238    19.6056  86.299021     1.4550     0.2896     8.4011 9.5741e+02  0.000e+00
        575      0.248    19.6102  86.239543     0.7760     0.1810     8.4029 1.3769e+03  0.000e+00
        576      0.280    19.6146  86.328757     1.3580     0.1810     8.4042 1.3228e+03  0.000e+00
        577      0.366    19.6175  86.299018     1.0670     0.3620     8.3999 8.9668e+02  0.000e+00
        578      0.461    19.6185  86.299019     0.1940     0.3439     8.3950 1.3138e+03  0.000e+00
        579      0.539    19.6192  86.299019     0.7275     0.2896     8.3937 8.2402e+02  0.000e+00
        580      0.600    19.6198  86.358497     1.0185     0.1810     8.3861 1.4119e+03  0.000e+00
        581      0.667    19.6196  86.299020     1.1640    -0.1448     8.3780 7.6918e+02  0.000e+00
        582      0.763    19.6200  86.299021     0.7275     0.4525     8.3713 7.9013e+02  0.000e+00
        583      0.852    19.6211  86.358498     0.8245     0.3439     8.3584 6.3056e+02  0.000e+00
        584      0.895    19.6216  86.328760     0.9215     0.0905     8.3582 6.8858e+02  0.000e+00
        585      0.921    19.6218  86.299022     0.2910     0.1448     8.3629 6.6926e+02  0.000e+00
        586      0.965    19.6221  86.328760     0.2425     0.2896     8.3681 5.0285e+02  0.000e+00
        587      1.050    19.6217  86.299023     0.9700     0.2172     8.3750 9.4372e+02  0.000e+00
        588      1.109    19.6199  86.299024     1.1155     0.2715     8.3796 9.2793e+02  0.000e+00
        589      1.143    19.6159  86.299025     1.0185     0.1810     8.3911 1.0620e+03  0.000e+00
        590      1.212    19.6128  86.299027     0.6305     0.2172     8.4004 7.9612e+02  0.000e+00
        591      1.308    19.6110  86.239551     0.8730     0.2172     8.4110 6.1383e+02  0.000e+00
        592      1.389    19.6101  86.299029     0.8245     0.2534     8.4190 7.4183e+02  0.000e+00
        593      1.443    19.6093  86.299030     0.8245     0.2534     8.4281 1.0015e+03  0.000e+00
        594      1.498    19.6087  86.299030     0.8245     0.2353     8.4342 7.9055e+02  0.000e+00
        595      1.593    19.6088  86.299031     0.8730     0.2534     8.4369 6.5116e+02  0.000e+00
        596      1.720    19.6082  86.239556     0.7760     0.2534     8.4298 5.4864e+02  0.000e+00
        597      1.799    19.6060  86.239557     0.9215     0.2715     8.4197 5.9129e+02  0.000e+00
        598      1.818    19.6056  86.239557     0.7760     0.2896     8.4195 7.1208e+02  0.000e+00
        599      1.861    19.6060  86.239557     0.8245     0.2896     8.4117 6.6131e+02  0.000e+00
        600      1.938    19.6061  86.239558     0.9215     0.2896     8.4181 6.3870e+02  0.000e+00
        601      2.024    19.6073  86.299035     0.9215     0.2896     8.4286 5.0427e+02  0.000e+00
        602      2.071    19.6080  86.299035     0.7760     0.2896     8.4368 4.5533e+02  0.000e+00
        603      2.085    19.6084  86.299035     0.8245     0.2715     8.4388 5.4222e+02  0.000e+00
        604      2.106    19.6086  86.299035     0.7760     0.2896     8.4463 1.0235e+03  0.000e+00
        605      2.127    19.6087  86.299035     0.7275     0.2715     8.4480 7.1183e+02  0.000e+00
        606      2.151    19.6088  86.299036     0.8245     0.2896     8.4526 4.7511e+02  0.000e+00
        607      2.237    19.6087  86.299036     0.8730     0.2715     8.4481 6.9747e+02  0.000e+00
        608      2.338    19.6090  86.299037     0.8245     0.2896     8.4453 6.8268e+02  0.000e+00
        609      2.407    19.6091  86.299038     0.8245     0.3077     8.4378 4.2035e+02  0.000e+00
        610      2.479    19.6093  86.239562     0.9215     0.3077     8.4400 4.5214e+02  0.000e+00
        611      2.508    19.6093  86.239562     0.7760     0.3077     8.4398 4.7871e+02  0.000e+00
        612      2.520    19.6089  86.328777     0.7760     0.3258     8.4294 5.5758e+02  0.000e+00
        613      2.606    19.6091  86.299039     0.8730     0.3077     8.4310 6.2890e+02  0.000e+00
        614      2.693    19.6086  86.299040     0.8245     0.3439     8.4250 5.5945e+02  0.000e+00
        615      2.748    19.6070  86.299041     0.7275     0.3077     8.4252 5.6152e+02  0.000e+00
        616      2.803    19.6068  86.299042     0.8730     0.3620     8.4208 4.0612e+02  0.000e+00
        617      2.880    19.6065  86.239566     0.8245     0.3258     8.4196 3.6838e+02  0.000e+00
        618      2.960    19.6043  86.299044     0.8245     0.3258     8.4258 4.1946e+02  0.000e+00
        619      3.025    19.5992  86.239569     0.8245     0.3258     8.4268 4.8167e+02  0.000e+00
        620      3.073    19.5955  86.299047     0.7760     0.3258     8.4374 4.8489e+02  0.000e+00
        621      3.136    19.5937  86.299048     0.8245     0.3620     8.4318 3.7955e+02  0.000e+00
        622      3.201    19.5927  86.209834     0.8245     0.3439     8.4299 3.3984e+02  0.000e+00
        623      3.259    19.5923  86.299049     0.8245     0.3620     8.4166 3.7557e+02  0.000e+00
        624      3.303    19.5923  86.299050     0.8245     0.3439     8.4115 4.6072e+02  0.000e+00
        625      3.341    19.5923  86.299050     0.8245     0.3439     8.4004 4.3408e+02  0.000e+00
        626      3.387    19.5919  86.299051     0.8245     0.3439     8.4037 3.6735e+02  0.000e+00
        627      3.442    19.5924  86.239574     0.7760     0.3620     8.4101 3.6567e+02  0.000e+00
        628      3.513    19.5929  86.299051     0.8245     0.3620     8.4103 4.3599e+02  0.000e+00
        629      3.575    19.5934  86.239575     0.8245     0.3620     8.4138 4.0769e+02  0.000e+00
        630      3.659    19.5931  86.239576     0.8245     0.3620     8.4182 3.1455e+02  0.000e+00
        631      3.747    19.5935  86.299053     0.8730     0.3801     8.4239 2.8482e+02  0.000e+00
        632      3.805    19.5946  86.239577     0.8730     0.3620     8.4226 2.9217e+02  0.000e+00
        633      3.826    19.5951  86.239577     0.8245     0.3801     8.4216 3.6298e+02  0.000e+00
        634      3.871    19.5951  86.299054     0.8245     0.3801     8.4168 3.4934e+02  0.000e+00
        635      3.934    19.5951  86.299054     0.7760     0.3982     8.4145 3.0188e+02  0.000e+00
        636      4.004    19.5944  86.239578     0.8245     0.3620     8.4203 2.7416e+02  0.000e+00
        637      4.075    19.5924  86.299056     0.7760     0.3982     8.4310 2.7523e+02  0.000e+00
        638      4.122    19.5855  86.239582     0.7760     0.3801     8.4335 3.2227e+02  0.000e+00
        639      4.165    19.5795  86.299060     0.8245     0.3801     8.4319 3.5798e+02  0.000e+00
        640      4.221    19.5758  86.209847     0.7760     0.4163     8.4307 2.7932e+02  0.000e+00
        641      4.300    19.5755  86.239586     0.7760     0.4163     8.4327 2.5704e+02  0.000e+00
        642      4.390    19.5767  86.239586     0.8730     0.3620     8.4356 2.5519e+02  0.000e+00
        643      4.440    19.5705  86.239589     0.8245     0.3982     8.4371 2.6386e+02  0.000e+00
        644      4.474    19.5640  86.239591     0.7275     0.3982     8.4385 3.0172e+02  0.000e+00
        645      4.543    19.5614  86.239592     0.8245     0.3982     8.4335 2.8094e+02  0.000e+00
        646      4.653    19.5605  86.180117     0.8245     0.3801     8.4280 2.5831e+02  0.000e+00
        647      4.725    19.5588  86.239594     0.7275     0.4163     8.4286 2.3783e+02  0.000e+00
        648      4.758    19.5577  86.239595     0.7760     0.3982     8.4254 2.3976e+02  0.000e+00
        649      4.810    19.5608  86.239594     0.7760     0.3982     8.4165 2.5641e+02  0.000e+00
        650      4.905    19.5639  86.239594     0.8245     0.3982     8.4179 2.7610e+02  0.000e+00
        651      4.995    19.5647  86.239595     0.7760     0.4525     8.4156 2.5350e+02  0.000e+00
        652      5.048    19.5637  86.239596     0.7760     0.3982     8.4162 2.3307e+02  0.000e+00
        653      5.092    19.5612  86.239597     0.7760     0.4344     8.4155 2.2689e+02  0.000e+00
        654      5.170    19.5597  86.180121     0.8730     0.4163     8.4069 2.3796e+02  0.000e+00
        655      5.258    19.5574  86.180123     0.8245     0.4525     8.4028 2.4956e+02  0.000e+00
        656      5.310    19.5550  86.239600     1.0185     0.4163     8.4039 2.4056e+02  0.000e+00
        657      5.342    19.5536  86.180124     0.7760     0.4163     8.4054 2.1294e+02  0.000e+00
        658      5.399    19.5516  86.209864     0.7760     0.4344     8.4035 1.9513e+02  0.000e+00
        659      5.498    19.5476  86.180127     0.8245     0.4344     8.4113 1.8733e+02  0.000e+00
        660      5.592    19.5407  86.239606     0.7760     0.4163     8.4200 1.9647e+02  0.000e+00
        661      5.671    19.5375  86.239608     0.8245     0.4163     8.4281 2.0479e+02  0.000e+00
        662      5.745    19.5361  86.239609     0.7760     0.3982     8.4315 2.0307e+02  0.000e+00
        663      5.819    19.5335  86.209872     0.8245     0.4706     8.4251 1.8534e+02  0.000e+00
        664      5.872    19.5305  86.180135     0.7760     0.4163     8.4108 1.8599e+02  0.000e+00
        665      5.901    19.5287  86.180136     0.7275     0.4163     8.4054 1.9315e+02  0.000e+00
        666      5.937    19.5274  86.150398     0.7760     0.4344     8.3987 1.9582e+02  0.000e+00
        667      6.005    19.5270  86.180137     0.8245     0.4344     8.3963 1.9082e+02  0.000e+00
        668      6.103    19.5267  86.209876     0.8245     0.4525     8.3975 1.8547e+02  0.000e+00
        669      6.187    19.5243  86.180139     0.7760     0.4163     8.4048 1.8128e+02  0.000e+00
        670      6.251    19.5220  86.180141     0.8730     0.4706     8.4190 1.7975e+02  0.000e+00
        671      6.296    19.5210  86.150403     0.8245     0.4163     8.4347 1.7263e+02  0.000e+00
        672      6.328    19.5199  86.180142     0.7275     0.4344     8.4426 1.7052e+02  0.000e+00
        673      6.363    19.5190  86.120666     0.7760     0.4344     8.4506 1.7336e+02  0.000e+00
        674      6.416    19.5182  86.209881     0.8245     0.4525     8.4568 1.6921e+02  0.000e+00
        675      6.479    19.5171  86.180144     0.7760     0.4163     8.4622 1.6270e+02  0.000e+00
        676      6.538    19.5159  86.150407     0.8245     0.4344     8.4528 1.6154e+02  0.000e+00
        677      6.602    19.5151  86.180145     0.8730     0.4344     8.4457 1.6359e+02  0.000e+00
        678      6.666    19.5144  86.180146     0.8245     0.4163     8.4257 1.5976e+02  0.000e+00
        679      6.727    19.5136  86.209885     0.8245     0.4344     8.4183 1.5214e+02  0.000e+00
        680      6.779    19.5132  86.180147     0.7760     0.4344     8.4173 1.4943e+02  0.000e+00
        681      6.831    19.5125  86.209886     0.8245     0.4163     8.4164 1.4980e+02  0.000e+00
        682      6.901    19.5117  86.180149     0.8730     0.4344     8.4144 1.4815e+02  0.000e+00
        683      6.978    19.5103  86.180150     0.8245     0.4163     8.4189 1.4341e+02  0.000e+00
        684      7.041    19.5091  86.209889     0.8245     0.4344     8.4322 1.3919e+02  0.000e+00
        685      7.097    19.5098  86.180151     0.7760     0.4163     8.4288 1.3812e+02  0.000e+00
        686      7.181    19.5108  86.180151     0.8245     0.4163     8.4210 1.3543e+02  0.000e+00
        687      7.271    19.5120  86.150414     0.8730     0.4163     8.4120 1.3130e+02  0.000e+00
        688      7.336    19.5122  86.180152     0.7760     0.4344     8.4060 1.2938e+02  0.000e+00
        689      7.388    19.5129  86.239629     0.8245     0.4163     8.4090 1.2766e+02  0.000e+00
        690      7.453    19.5131  86.180153     0.7760     0.4163     8.4062 1.2719e+02  0.000e+00
        691      7.523    19.5130  86.180154     0.7275     0.4163     8.4040 1.2445e+02  0.000e+00
        692      7.592    19.5130  86.150416     0.8245     0.4163     8.4062 1.1983e+02  0.000e+00
        693      7.662    19.5111  86.239632     0.8730     0.4163     8.4082 1.1524e+02  0.000e+00
        694      7.737    19.5087  86.150418     0.7760     0.4344     8.4162 1.0728e+02  0.000e+00
        695      7.796    19.5068  86.180158     0.7760     0.4163     8.4193 1.2782e+02  0.000e+00
        696      7.838    19.5054  86.180158     0.7760     0.4344     8.4252 1.1099e+02  0.000e+00
        697      7.883    19.5037  86.150421     0.7760     0.4163     8.4267 9.8619e+01  0.000e+00
        698      7.948    19.5011  86.120684     0.7760     0.3982     8.4323 9.8118e+01  0.000e+00
        699      8.022    19.4963  86.061210     0.7760     0.4163     8.4374 1.0869e+02  0.000e+00
        700      8.083    19.4888  86.031474     0.8245     0.3801     8.4316 1.0704e+02  0.000e+00
        701      8.140    19.4829  86.031477     0.7760     0.4344     8.4339 1.0343e+02  0.000e+00
        702      8.207    19.4790  86.090954     0.8245     0.4344     8.4340 1.0156e+02  0.000e+00
        703      8.264    19.4778  86.061217     0.7760     0.4344     8.4300 1.0111e+02  0.000e+00
        704      8.304    19.4772  86.090956     0.7760     0.3982     8.4237 1.0300e+02  0.000e+00
        705      8.356    19.4768  86.120694     0.8730     0.4887     8.4118 1.0195e+02  0.000e+00
        706      8.421    19.4767  86.120695     0.8245     0.6335     8.4103 9.8897e+01  0.000e+00
        707      8.504    19.4771  86.090957     0.8730     0.4887     8.4043 9.6986e+01  0.000e+00
        708      8.588    19.4769  86.061220     0.8245     0.4706     8.4097 9.5312e+01  0.000e+00
        709      8.659    19.4744  86.061221     0.7275     0.4525     8.4156 9.4594e+01  0.000e+00
        710      8.713    19.4702  86.061223     0.8245     0.3982     8.4216 9.3849e+01  0.000e+00
        711      8.776    19.4676  86.061224     0.7760     0.4706     8.4243 9.1631e+01  0.000e+00
        712      8.844    19.4658  86.061225     0.8245     0.4344     8.4254 9.0097e+01  0.000e+00
        713      8.905    19.4627  86.061227     0.8245     0.4163     8.4308 8.8045e+01  0.000e+00
        714      8.979    19.4545  86.031491     0.8245     0.4525     8.4209 8.6450e+01  0.000e+00
        715      9.057    19.4534  86.061230     0.8245     0.4344     8.4129 8.5935e+01  0.000e+00
        716      9.133    19.4557  86.031492     0.8245     0.4525     8.4080 8.5558e+01  0.000e+00
        717      9.195    19.4525  86.031494     0.8245     0.4887     8.4106 8.4913e+01  0.000e+00
        718      9.244    19.4443  86.061235     0.8245     0.4525     8.4156 8.3301e+01  0.000e+00
        719      9.295    19.4410  86.031498     0.8730     0.4163     8.4209 8.1590e+01  0.000e+00
        720      9.358    19.4403  85.942285     0.8245     0.4525     8.4334 8.0705e+01  0.000e+00
        721      9.437    19.4301  85.585437     0.8730     0.3982     8.4394 7.8895e+01  0.000e+00
        722      9.529    19.3761  84.931242     0.8245     0.4344     8.4544 7.7479e+01  0.000e+00
        723      9.595    19.2549  84.128411     0.7760     0.4706     8.4703 7.7220e+01  0.000e+00
        724      9.626    19.0904  83.801372     0.7760     0.4887     8.4739 7.7058e+01  0.000e+00
        725      9.648    18.9403  83.890617     0.8245     0.4525     8.4499 7.5555e+01  0.000e+00
        726      9.706    18.8747  82.612079     0.7275     0.4525     8.4223 7.4029e+01  0.000e+00
        727      9.778    18.7457  82.017465     0.7760     0.4163     8.4217 7.2725e+01  0.000e+00
        728      9.822    18.5585  81.125574     0.8245     0.4706     8.4298 7.3072e+01  0.000e+00
        729      9.852    18.3686  81.185086     0.7275     0.4525     8.4345 7.3303e+01  0.000e+00
        730      9.917    18.2288  77.082697     0.8245     0.4163     8.4539 7.1760e+01  0.000e+00
        731      9.991    17.9167  70.009576     0.8245     0.4163     8.5309 6.9830e+01  0.000e+00
        732     10.049    17.2645  66.503778     0.7275     0.4525     8.6232 6.8600e+01  0.000e+00
        733     10.098    16.4958  65.820653     0.9215     0.4887     8.6623 6.7904e+01  0.000e+00
        734     10.169    15.9253  65.583114     0.7760     0.5068     8.6340 6.7250e+01  0.000e+00
        735     10.248    15.5611  63.355252     0.8730     0.4887     8.6765 6.5880e+01  0.000e+00
        736     10.302    15.2620  62.880052     0.8730     0.4525     8.8393 6.4960e+01  0.000e+00
        737     10.346    15.0388  62.612768     0.8730     0.4163     9.0639 6.3973e+01  0.000e+00
        738     10.413    14.8887  62.018746     0.9215     0.4525     9.3324 6.2692e+01  0.000e+00
        739     10.479    14.7789  61.187123     1.0670     0.4525     9.6263 6.1523e+01  0.000e+00
        740     10.531    14.6750  60.860436     1.0670     0.4344     9.9199 6.1210e+01  0.000e+00
        741     10.590    14.5774  60.622853     1.1155     0.4163    10.1694 6.0185e+01  0.000e+00
        742     10.675    14.4957  60.504069     1.3095     0.4163    10.3217 5.8617e+01  0.000e+00
        743     10.755    14.4222  60.266485     1.4065     0.4525    10.3472 5.7585e+01  0.000e+00
        744     10.804    14.3552  60.177400     1.4065     0.4163    10.3054 5.7020e+01  0.000e+00
        745     10.846    14.3097  60.118010     1.5035     0.4163    10.2295 5.6332e+01  0.000e+00
        746     10.906    14.2818  59.939820     1.5035     0.4344    10.1439 5.5292e+01  0.000e+00
        747     10.988    14.2613  59.405247     1.5520     0.3982    10.0625 5.4596e+01  0.000e+00
        748     11.079    14.2271  58.484627     1.5520     0.4163     9.9913 5.3483e+01  0.000e+00
        749     11.168    14.1691  57.920404     1.5035     0.4163     9.9242 5.2081e+01  0.000e+00
        750     11.241    14.1050  57.474980     1.5520     0.4163     9.8489 5.0475e+01  0.000e+00
        751     11.289    14.0538  57.296817     1.6005     0.5068     9.7603 4.9971e+01  0.000e+00
        752     11.321    14.0198  57.356214     1.6490     0.4163     9.6654 4.9385e+01  0.000e+00
        753     11.367    14.0014  57.564086     1.7460     0.4163     9.5571 4.8721e+01  0.000e+00
        754     11.443    13.9994  57.504696     1.8430     0.4525     9.4496 4.7787e+01  0.000e+00
        755     11.534    13.9994  57.237439     2.0855     0.4706     9.3475 4.6501e+01  0.000e+00
        756     11.618    13.9871  57.296832     2.1825     0.4344     9.2554 4.5425e+01  0.000e+00
        757     11.703    13.9712  57.207750     2.2310     0.3982     9.1829 4.4241e+01  0.000e+00
        758     11.768    13.9558  57.029583     2.2795     0.4163     9.1304 4.3370e+01  0.000e+00
        759     11.810    13.9403  56.970197     2.1825     0.4163     9.0917 4.3050e+01  0.000e+00
        760     11.842    13.9263  57.059284     2.2310     0.3801     9.0596 4.2726e+01  0.000e+00
        761     11.917    13.9225  56.940506     2.3765     0.3982     9.0413 4.1700e+01  0.000e+00
        762     12.002    13.9227  56.613868     2.3765     0.3801     9.0207 4.0265e+01  0.000e+00
        763     12.060    13.9123  56.495094     2.3280     0.4163     9.0116 3.9458e+01  0.000e+00
        764     12.102    13.9010  56.495096     2.3280     0.2534     9.0045 3.9195e+01  0.000e+00
        765     12.181    13.8949  56.524792     2.4735     0.3982     8.9858 3.7999e+01  0.000e+00
        766     12.272    13.8928  56.376323     2.3765     0.3982     8.9567 3.6742e+01  0.000e+00
        767     12.331    13.8863  56.020002     2.4250     0.4163     8.9520 3.6267e+01  0.000e+00
        768     12.353    13.8763  56.109084     2.3765     0.3982     8.9274 3.6228e+01  0.000e+00
        769     12.398    13.8703  56.168472     2.5220     0.4163     8.9063 3.5533e+01  0.000e+00
        770     12.487    13.8707  55.960619     2.6190     0.4525     8.8932 3.4322e+01  0.000e+00
        771     12.570    13.8666  55.247996     2.6190     0.4525     8.8819 3.3474e+01  0.000e+00
        772     12.630    13.8464  55.099540     2.5705     0.4525     8.8792 3.3116e+01  0.000e+00
        773     12.679    13.8255  55.040161     2.6190     0.4344     8.8757 3.2768e+01  0.000e+00
        774     12.728    13.8126  55.099547     2.7160     0.4525     8.8767 3.2151e+01  0.000e+00
        775     12.779    13.7975  54.980783     2.7160     0.4163     8.8655 3.1824e+01  0.000e+00
        776     12.847    13.7822  54.743253     2.8130     0.4163     8.8607 3.1098e+01  0.000e+00
        777     12.932    13.7609  54.594801     3.3950     0.4706     8.8365 3.0260e+01  0.000e+00
        778     13.009    13.7351  54.386969     3.4435     0.4706     8.8081 2.9424e+01  0.000e+00
        779     13.065    13.7035  54.090069     3.2980     0.5068     8.7795 2.8916e+01  0.000e+00
        780     13.119    13.6778  53.941623     3.3465     0.5792     8.7496 2.8506e+01  0.000e+00
        781     13.192    13.6624  53.615037     3.4920     0.6335     8.7103 2.7767e+01  0.000e+00
        782     13.262    13.6478  53.080632     3.6860     0.7059     8.6776 2.7086e+01  0.000e+00
        783     13.304    13.6282  53.021258     3.7830     0.7783     8.6514 2.6660e+01  0.000e+00
        784     13.337    13.6140  53.080639     3.7345     0.7602     8.6077 2.6393e+01  0.000e+00
        785     13.400    13.6063  53.021263     4.1710     0.7783     8.5787 2.5709e+01  0.000e+00
        786     13.477    13.6010  52.872821     4.4620     0.7240     8.5579 2.4867e+01  0.000e+00
        787     13.538    13.5924  52.961888     4.4135     0.7240     8.5582 2.4333e+01  0.000e+00
        788     13.576    13.5846  52.991579     4.3650     0.6154     8.5599 2.4150e+01  0.000e+00
        789     13.652    13.5809  52.843136     5.4805     0.5068     8.5695 2.3333e+01  0.000e+00
        790     13.746    13.5780  52.338439     5.4320     0.4344     8.5880 2.2292e+01  0.000e+00
        791     13.813    13.5686  52.279066     4.8985     0.4706     8.6076 2.1687e+01  0.000e+00
        792     13.843    13.5577  52.308755     4.8015     0.3982     8.6272 2.1493e+01  0.000e+00
        793     13.879    13.5515  52.338444     4.9955     0.4163     8.6359 2.1206e+01  0.000e+00
        794     13.967    13.5518  52.219694     5.7715     0.3801     8.6471 2.0174e+01  0.000e+00
        795     14.072    13.5489  52.071258     6.1110     0.3982     8.6621 1.9023e+01  0.000e+00
        796     14.145    13.5395  51.952510     5.9655     0.3620     8.6851 1.8473e+01  0.000e+00
        797     14.197    13.5320  51.952512     5.7230     0.3982     8.7124 1.8032e+01  0.000e+00
        798     14.254    13.5290  51.922826     5.7230     0.3982     8.7278 1.7462e+01  0.000e+00
        799     14.310    13.5272  51.833765     5.5775     0.3801     8.7479 1.7015e+01  0.000e+00
        800     14.354    13.5232  51.774392     5.5290     0.3439     8.7666 1.6693e+01  0.000e+00
        801     14.408    13.5200  51.833767     5.7715     0.3620     8.7792 1.6366e+01  0.000e+00
        802     14.485    13.5179  51.833767     6.9355     0.3801     8.7751 1.5649e+01  0.000e+00
        803     14.572    13.5154  51.774394     6.4505     0.3801     8.7747 1.4804e+01  0.000e+00
        804     14.642    13.5117  51.893143     6.1110     0.3439     8.7674 1.4209e+01  0.000e+00
        805     14.710    13.5088  51.833770     6.2080     0.3620     8.7690 1.3692e+01  0.000e+00
        806     14.770    13.5068  51.833771     6.4990     0.3439     8.7646 1.3144e+01  0.000e+00
        807     14.816    13.5046  51.804084     6.2080     0.3258     8.7630 1.2798e+01  0.000e+00
        808     14.858    13.5025  51.863459     6.1110     0.3439     8.7464 1.2513e+01  0.000e+00
        809     14.931    13.5025  51.744711     6.7415     0.3620     8.7330 1.1934e+01  0.000e+00
        810     15.018    13.5006  51.477532     7.1780     0.3439     8.7222 1.1225e+01  0.000e+00
        811     15.092    13.4956  51.536906     6.8385     0.3620     8.7096 1.0728e+01  0.000e+00
        812     15.146    13.4910  51.477534     6.4020     0.3620     8.6974 1.0399e+01  0.000e+00
        813     15.185    13.4883  51.536908     6.3050     0.3439     8.6947 1.0182e+01  0.000e+00
        814     15.217    13.4879  51.536908     6.4020     0.3258     8.6909 9.9499e+00  0.000e+00
        815     15.250    13.4884  51.566595     6.4020     0.3258     8.6934 9.7699e+00  0.000e+00
        816     15.266    13.4884  51.596282     6.0625     0.3077     8.7060 9.6580e+00  0.000e+00
        817     15.261    13.4882  51.536908     5.6745     0.3258     8.7093 9.7388e+00  0.000e+00
        818     15.249    13.4915  51.625968     5.5290     0.3077     8.7066 9.8307e+00  0.000e+00
        819     15.251    13.5005  51.625966     5.6745     0.3077     8.7055 9.7233e+00  0.000e+00
        820     15.264    13.5103  51.625965     5.9655     0.3077     8.7028 9.6597e+00  0.000e+00
        821     15.268    13.5125  51.625964     5.7715     0.3077     8.7064 9.6683e+00  0.000e+00
        822     15.265    13.5103  51.596278     5.8685     0.3077     8.7117 9.6820e+00  0.000e+00
        823     15.261    13.5065  51.566592     5.6260     0.3439     8.7157 9.6992e+00  0.000e+00
        824     15.255    13.5010  51.566593     5.6745     0.3620     8.7230 9.7543e+00  0.000e+00
        825     15.272    13.4988  51.596280     5.7715     0.3077     8.7238 9.5932e+00  0.000e+00
        826     15.334    13.4983  51.536907     7.2750     0.3439     8.7215 9.3365e+00  0.000e+00
        827     15.402    13.4942  51.536908     7.2265     0.3439     8.7122 8.8686e+00  0.000e+00
        828     15.462    13.4882  51.566596     7.0810     0.3258     8.7084 8.5929e+00  0.000e+00
        829     15.552    13.4846  51.685344     7.4690     0.3439     8.7081 8.1677e+00  0.000e+00
        830     15.651    13.4822  52.011902     7.2750     0.3258     8.7006 7.5163e+00  0.000e+00
        831     15.695    13.4784  52.011903     6.0625     0.3439     8.6990 7.2616e+00  0.000e+00
        832     15.696    13.4757  51.952529     5.6745     0.3077     8.6993 7.3643e+00  0.000e+00
        833     15.729    13.4765  51.922842     5.9655     0.3077     8.6997 7.2681e+00  0.000e+00
        834     15.833    13.4812  51.952529     7.0325     0.3258     8.6938 6.7008e+00  0.000e+00
        835     15.943    13.4815  51.982216     7.1295     0.3258     8.6945 6.1939e+00  0.000e+00
        836     16.037    13.4765  51.893156     6.5960     0.3077     8.6902 5.8454e+00  0.000e+00
        837     16.126    13.4725  51.833783     6.4990     0.3077     8.6842 5.5085e+00  0.000e+00
        838     16.196    13.4701  51.922845     6.1595     0.3258     8.6803 5.2157e+00  0.000e+00
        839     16.244    13.4684  51.833785     5.7230     0.3077     8.6698 5.1197e+00  0.000e+00
        840     16.287    13.4676  51.893159     6.3050     0.3258     8.6524 4.9666e+00  0.000e+00
        841     16.354    13.4683  51.863472     6.5475     0.3077     8.6444 4.7462e+00  0.000e+00
        842     16.440    13.4675  51.893160     6.8870     0.3258     8.6402 4.4764e+00  0.000e+00
        843     16.532    13.4650  51.833787     6.8870     0.3439     8.6354 4.2067e+00  0.000e+00
        844     16.618    13.4620  51.833787     6.6930     0.3439     8.6446 3.9957e+00  0.000e+00
        845     16.697    13.4590  51.804101     6.2565     0.3258     8.6476 3.8142e+00  0.000e+00
        846     16.770    13.4559  51.922850     6.0140     0.3258     8.6602 3.6329e+00  0.000e+00
        847     16.848    13.4526  51.952539     6.2080     0.3439     8.6728 3.4426e+00  0.000e+00
        848     16.935    13.4479  51.952540     6.6930     0.3077     8.6854 3.2668e+00  0.000e+00
        849     17.006    13.4426  51.863480     6.4020     0.3620     8.6873 3.1285e+00  0.000e+00
        850     17.066    13.4375  51.833794     6.2565     0.3439     8.6810 3.0273e+00  0.000e+00
        851     17.133    13.4336  51.833795     6.3535     0.2896     8.6806 2.8910e+00  0.000e+00
        852     17.212    13.4318  51.774422     6.2080     0.3258     8.6699 2.7862e+00  0.000e+00
        853     17.293    13.4283  51.804109     6.5475     0.3258     8.6684 2.6740e+00  0.000e+00
        854     17.352    13.4253  51.774423     6.3050     0.3077     8.6627 2.5420e+00  0.000e+00
        855     17.387    13.4234  51.804111     6.1595     0.3077     8.6564 2.4958e+00  0.000e+00
        856     17.407    13.4229  51.804111     5.9170     0.3077     8.6496 2.4670e+00  0.000e+00
        857     17.436    13.4237  51.774424     6.0140     0.2896     8.6515 2.4327e+00  0.000e+00
        858     17.490    13.4242  51.744737     6.5960     0.3077     8.6519 2.3526e+00  0.000e+00
        859     17.567    13.4225  51.685364     7.0810     0.3077     8.6523 2.2368e+00  0.000e+00
        860     17.643    13.4180  51.536932     7.1295     0.2896     8.6602 2.1231e+00  0.000e+00
        861     17.712    13.4079  51.418188     6.9355     0.3258     8.6631 2.0371e+00  0.000e+00
        862     17.783    13.3970  51.447877     6.9355     0.3439     8.6675 1.9563e+00  0.000e+00
        863     17.853    13.3885  51.358819     6.6930     0.3439     8.6726 1.8580e+00  0.000e+00
        864     17.913    13.3825  51.358821     6.6445     0.3258     8.6716 1.7801e+00  0.000e+00
        865     17.966    13.3780  51.388508     6.8385     0.3077     8.6622 1.7354e+00  0.000e+00
        866     18.025    13.3759  51.358822     7.1295     0.3077     8.6498 1.6673e+00  0.000e+00
        867     18.101    13.3741  51.299450     7.5175     0.3077     8.6419 1.5891e+00  0.000e+00
        868     18.196    13.3715  51.299451     7.4690     0.3258     8.6394 1.4934e+00  0.000e+00
        869     18.291    13.3670  50.943221     7.5660     0.3077     8.6369 1.3930e+00  0.000e+00
        870     18.356    13.3561  50.765110     6.8385     0.2896     8.6414 1.3275e+00  0.000e+00
        871     18.402    13.3439  50.765112     6.4505     0.3077     8.6416 1.3064e+00  0.000e+00
        872     18.452    13.3365  50.765114     6.7415     0.2715     8.6476 1.2569e+00  0.000e+00
        873     18.526    13.3331  50.676058     7.1295     0.2896     8.6577 1.1882e+00  0.000e+00
        874     18.594    13.3279  50.646374     7.1295     0.3258     8.6715 1.1195e+00  0.000e+00
        875     18.639    13.3234  50.705746     7.0325     0.3077     8.6785 1.1064e+00  0.000e+00
        876     18.681    13.3204  50.676061     7.8570     0.2896     8.6870 1.0753e+00  0.000e+00
        877     18.749    13.3193  50.646377     8.2935     0.2715     8.6911 1.0171e+00  0.000e+00
        878     18.819    13.3179  50.616692     8.0510     0.3258     8.7024 9.6656e-01  0.000e+00
        879     18.879    13.3167  50.676063     7.8085     0.3077     8.7041 9.4843e-01  0.000e+00
        880     18.948    13.3154  50.616693     8.2450     0.3077     8.7062 9.2403e-01  0.000e+00
        881     19.042    13.3151  50.616693     8.5845     0.2896     8.7120 8.5145e-01  0.000e+00
        882     19.127    13.3139  50.646379     8.0995     0.2715     8.7112 7.8500e-01  0.000e+00
        883     19.187    13.3123  50.557324     7.5175     0.2896     8.7116 7.5408e-01  0.000e+00
        884     19.214    13.3104  50.527640     7.0810     0.2715     8.7173 7.2255e-01  0.000e+00
        885     19.244    13.3083  50.497955     6.9840     0.2896     8.7171 7.1746e-01  0.000e+00
        886     19.296    13.3070  50.438586     7.7115     0.2534     8.7142 6.7788e-01  0.000e+00
        887     19.362    13.3052  50.438586     8.0025     0.2896     8.7135 6.5167e-01  0.000e+00
        888     19.440    13.3027  50.349532     9.0210     0.2715     8.7089 6.1668e-01  0.000e+00
        889     19.519    13.2971  50.290164     8.7785     0.2534     8.6977 5.7566e-01  0.000e+00
        890     19.590    13.2912  50.290165     8.6330     0.2896     8.6885 5.3944e-01  0.000e+00
        891     19.647    13.2868  50.290166     8.1480     0.2896     8.6797 5.1767e-01  0.000e+00
        892     19.697    13.2835  50.230798     7.7600     0.2896     8.6773 5.0261e-01  0.000e+00
        893     19.771    13.2819  50.290168     8.1965     0.2715     8.6810 4.7432e-01  0.000e+00
        894     19.857    13.2797  50.290169     9.2635     0.2896     8.6842 4.3344e-01  0.000e+00
        895     19.931    13.2771  50.141746     8.4390     0.2715     8.6938 4.0116e-01  0.000e+00
        896     19.982    13.2722  50.230801     8.1965     0.2715     8.7018 3.9371e-01  0.000e+00
        897     20.033    13.2693  50.171433     8.2935     0.2896     8.7079 3.7702e-01  0.000e+00
        898     20.088    13.2667  50.082380     8.3905     0.2896     8.7086 3.5701e-01  0.000e+00
        899     20.145    13.2627  50.112065     8.3420     0.2896     8.7059 3.3929e-01  0.000e+00
        900     20.220    13.2599  50.082382     8.3905     0.2715     8.7031 3.1016e-01  0.000e+00
        901     20.300    13.2585  50.112067     9.4575     0.2896     8.7002 2.9159e-01  0.000e+00
        902     20.373    13.2575  50.171436     8.6330     0.2896     8.6996 2.7987e-01  0.000e+00
        903     20.419    13.2570  50.141752     8.0025     0.2896     8.7042 2.5963e-01  0.000e+00
        904     20.447    13.2575  50.112068     7.9055     0.2896     8.7091 2.5191e-01  0.000e+00
        905     20.501    13.2580  50.052699     8.8755     0.2715     8.7114 2.5002e-01  0.000e+00
        906     20.578    13.2574  50.141753     9.3605     0.2896     8.7110 2.3293e-01  0.000e+00
        907     20.655    13.2562  50.112069     8.8270     0.2715     8.7081 2.1027e-01  0.000e+00
        908     20.727    13.2555  50.052701     8.6815     0.2896     8.7045 1.8860e-01  0.000e+00
        909     20.798    13.2540  50.112070     8.8270     0.2715     8.7001 1.7953e-01  0.000e+00
        910     20.871    13.2517  50.052702     8.9240     0.2534     8.6874 1.6468e-01  0.000e+00
        911     20.944    13.2494  50.052703     8.7300     0.2896     8.6734 1.4942e-01  0.000e+00
        912     21.018    13.2470  50.052703     8.9240     0.2896     8.6730 1.4729e-01  0.000e+00
        913     21.091    13.2451  50.052704     8.8270     0.2715     8.6743 1.3607e-01  0.000e+00
        914     21.156    13.2436  49.963652     8.8270     0.2353     8.6800 1.2739e-01  0.000e+00
        915     21.215    13.2428  50.023021     8.9725     0.2896     8.6830 1.1382e-01  0.000e+00
        916     21.282    13.2414  49.963653     9.5060     0.2896     8.6889 1.0811e-01  0.000e+00
        917     21.354    13.2399  49.993337     9.6030     0.2715     8.6921 9.6438e-02  0.000e+00
        918     21.420    13.2393  49.963654     8.7785     0.2715     8.6907 8.8219e-02  0.000e+00
        919     21.474    13.2358  49.844918     8.4875     0.2534     8.6901 7.7922e-02  0.000e+00
        920     21.516    13.2284  49.844919     8.2935     0.2715     8.6804 7.5311e-02  0.000e+00
        921     21.572    13.2228  49.844920     8.7300     0.2896     8.6812 6.5571e-02  0.000e+00
        922     21.657    13.2180  49.815238     9.3605     0.2715     8.6772 6.2043e-02  0.000e+00
        923     21.746    13.2149  49.755871     9.6030     0.2715     8.6720 5.2359e-02  0.000e+00
        924     21.823    13.2110  49.637136     9.2635     0.2896     8.6771 4.3494e-02  0.000e+00
        925     21.883    13.2060  49.607454     9.0695     0.2534     8.6817 3.3421e-02  0.000e+00
        926     21.951    13.2024  49.577771     9.4575     0.2896     8.6815 3.5117e-02  0.000e+00
        927     22.040    13.1985  49.459038     9.4090     0.2534     8.6872 1.6790e-02  0.000e+00
        928     22.116    13.1943  49.429355     9.2150     0.2534     8.6890 1.5742e-02  0.000e+00
        929     22.158    13.1903  49.429356     8.5845     0.2534     8.6950 1.7131e-02  0.000e+00
        930     22.196    13.1884  49.429357     8.7300     0.2534     8.6991 5.7347e-03  0.000e+00
        931     22.268    13.1879  49.369990     9.5060     0.2715     8.7056 6.5827e-03  0.000e+00
        932     22.364    13.1869  49.429358    10.4760     0.2534     8.7141 4.2969e-03  0.000e+00
        933     22.435    13.1853  49.340308    10.0395     0.2534     8.7209 1.1887e-04  0.000e+00
        934     22.488    13.1842  49.310625     9.0695     0.2534     8.7266 2.9274e-05  0.000e+00
        935     22.545    13.1838  49.251259     9.8940     0.2534     8.7262 1.0000e-12  0.000e+00
        936     22.613    13.1830  49.280943     9.7485     0.2534     8.7288 2.9274e-05  0.000e+00
        937     22.678    13.1814  49.310627    10.3790     0.2534     8.7256 1.0000e-12  0.000e+00
        938     22.731    13.1801  49.280944     9.8940     0.2534     8.7305 5.9128e-05  0.000e+00
        939     22.783    13.1792  49.310628    10.8155     0.2353     8.7324 1.4351e-05  0.000e+00
        940     22.858    13.1791  49.310628    11.1550     0.2534     8.7338 7.4059e-05  0.000e+00
        941     22.943    13.1784  49.369995    10.6700     0.2534     8.7358 1.4351e-05  0.000e+00
        942     23.009    13.1779  49.429362     9.9425     0.2353     8.7333 1.0000e-12  0.000e+00
        943     23.059    13.1775  49.429362     9.6515     0.2715     8.7284 4.4200e-05  0.000e+00
        944     23.130    13.1777  49.340313    10.2335     0.2715     8.7192 7.4059e-05  0.000e+00
        945     23.218    13.1771  49.310630    10.0395     0.2715     8.7140 8.8992e-05  0.000e+00
        946     23.287    13.1752  49.191898    10.2335     0.2534     8.7053 7.4059e-05  0.000e+00
        947     23.333    13.1724  49.132532     9.7000     0.2534     8.7059 1.0393e-04  0.000e+00
        948     23.388    13.1699  49.132533    10.1850     0.2715     8.7079 2.9274e-05  0.000e+00
        949     23.457    13.1679  49.043485     9.7000     0.2715     8.7101 2.9274e-05  0.000e+00
        950     23.515    13.1651  49.043486     9.7970     0.2534     8.7057 1.0000e-12  0.000e+00
        951     23.575    13.1626  48.984121    10.2820     0.2534     8.7067 5.9128e-05  0.000e+00
        952     23.635    13.1606  48.984121    11.0095     0.2353     8.7089 7.4059e-05  0.000e+00
        953     23.694    13.1596  48.984122    10.5245     0.2353     8.7125 1.0000e-12  0.000e+00
        954     23.752    13.1587  48.984122    10.3790     0.2896     8.7179 5.9128e-05  0.000e+00
        955     23.814    13.1580  48.924757    10.9610     0.2353     8.7255 1.3381e-04  0.000e+00
        956     23.878    13.1572  48.924758    11.3005     0.2353     8.7324 2.9274e-05  0.000e+00
        957     23.946    13.1567  48.895075    11.3490     0.2534     8.7364 1.4351e-05  0.000e+00
        958     24.012    13.1560  48.924758    10.3790     0.2534     8.7406 1.3381e-04  0.000e+00
        959     24.076    13.1554  48.835711    10.5730     0.2534     8.7353 2.9274e-05  0.000e+00
        960     24.129    13.1544  48.806029    11.0095     0.2534     8.7373 5.9128e-05  0.000e+00
        961     24.188    13.1533  48.776347    10.1850     0.2534     8.7364 2.9274e-05  0.000e+00
        962     24.253    13.1523  48.746665    10.5245     0.2534     8.7334 1.0000e-12  0.000e+00
        963     24.324    13.1505  48.598254    11.6885     0.2534     8.7306 2.9274e-05  0.000e+00
        964     24.388    13.1474  48.657619    11.3005     0.2534     8.7339 2.9274e-05  0.000e+00
        965     24.450    13.1412  48.657621    10.8640     0.2715     8.7416 2.9274e-05  0.000e+00
        966     24.502    13.1329  48.449847     9.8940     0.2715     8.7469 2.9274e-05  0.000e+00
        967     24.541    13.1215  48.331122    10.2335     0.2534     8.7592 7.4059e-05  0.000e+00
        968     24.578    13.1090  48.420170    10.7670     0.2715     8.7692 4.4200e-05  0.000e+00
        969     24.638    13.1026  48.271762    11.3005     0.2353     8.7745 7.4059e-05  0.000e+00
        970     24.708    13.0963  48.242081    11.5430     0.2353     8.7744 2.9274e-05  0.000e+00
        971     24.775    13.0893  48.182720    12.2705     0.2172     8.7791 1.1887e-04  0.000e+00
        972     24.822    13.0830  48.182721    11.6885     0.2353     8.7748 8.8992e-05  0.000e+00
        973     24.871    13.0787  48.182722    11.3490     0.2353     8.7582 7.4059e-05  0.000e+00
        974     24.940    13.0761  48.182722    11.3490     0.2353     8.7496 1.0393e-04  0.000e+00
        975     25.014    13.0747  48.182723    11.2520     0.2353     8.7362 2.9274e-05  0.000e+00
        976     25.078    13.0742  48.182723    12.3675     0.2534     8.7310 8.8992e-05  0.000e+00
        977     25.127    13.0734  48.242087    10.9610     0.2534     8.7360 2.9274e-05  0.000e+00
        978     25.173    13.0721  48.242087    10.7670     0.2172     8.7396 1.0393e-04  0.000e+00
        979     25.226    13.0707  48.182725    11.2035     0.2715     8.7410 1.0000e-12  0.000e+00
        980     25.291    13.0693  48.182725    12.0765     0.2534     8.7481 7.4059e-05  0.000e+00
        981     25.350    13.0686  48.182726    12.7070     0.2353     8.7585 4.4200e-05  0.000e+00
        982     25.397    13.0678  48.212407    12.0280     0.2353     8.7626 2.9274e-05  0.000e+00
        983     25.451    13.0675  48.182726    11.9795     0.2353     8.7663 1.0000e-12  0.000e+00
        984     25.524    13.0672  48.182727    11.1065     0.2534     8.7656 7.4059e-05  0.000e+00
        985     25.598    13.0668  48.123364    12.9495     0.2353     8.7687 2.9274e-05  0.000e+00
        986     25.659    13.0665  48.123364    13.3860     0.2172     8.7736 1.0000e-12  0.000e+00
        987     25.711    13.0662  48.123365    12.2220     0.1991     8.7712 1.0393e-04  0.000e+00
        988     25.770    13.0659  48.123365    11.3005     0.2353     8.7712 2.9274e-05  0.000e+00
        989     25.832    13.0657  48.123365    11.1065     0.2534     8.7642 5.9128e-05  0.000e+00
        990     25.885    13.0657  48.182728    12.3675     0.2534     8.7588 2.9274e-05  0.000e+00
        991     25.929    13.0657  48.123366    12.0765     0.2534     8.7577 2.9274e-05  0.000e+00
        992     25.982    13.0656  48.123366    12.0280     0.2534     8.7514 1.0000e-12  0.000e+00
        993     26.038    13.0654  48.123366    11.9310     0.2353     8.7440 1.0000e-12  0.000e+00
        994     26.085    13.0653  48.123366    12.3190     0.2353     8.7406 2.9274e-05  0.000e+00
        995     26.116    13.0652  48.123367    11.3005     0.2353     8.7417 1.0000e-12  0.000e+00
        996     26.156    13.0652  48.123367    12.0765     0.2534     8.7465 4.4200e-05  0.000e+00
        997     26.222    13.0652  48.123367    12.9980     0.2353     8.7516 1.0000e-12  0.000e+00
        998     26.305    13.0649  48.123367    13.9680     0.2534     8.7527 1.0000e-12  0.000e+00
        999     26.387    13.0646  48.123368    13.8225     0.2534     8.7542 7.4059e-05  0.000e+00
       1000     26.453    13.0644  48.182731    13.3375     0.2534     8.7490 1.0000e-12  0.000e+00
       1001     26.513    13.0644  48.123369    10.4760     0.2353     8.7512 8.8992e-05  0.000e+00
       1002     26.569    13.0644  48.123369    10.6700     0.2534     8.7535 7.4059e-05  0.000e+00
       1003     26.630    13.0644  48.093688    11.0580     0.2534     8.7519 1.0393e-04  0.000e+00
       1004     26.688    13.0640  48.064007    11.6400     0.2353     8.7555 1.1887e-04  0.000e+00
       1005     26.747    13.0637  48.064007    12.5130     0.2172     8.7543 7.4059e-05  0.000e+00
       1006     26.814    13.0634  48.034326    11.5915     0.2353     8.7605 1.0393e-04  0.000e+00
       1007     26.891    13.0628  48.004645    11.6400     0.2172     8.7580 1.4351e-05  0.000e+00
       1008     26.971    13.0621  48.004645    13.5315     0.2353     8.7506 4.4200e-05  0.000e+00
       1009     27.037    13.0610  48.034327    12.3675     0.2534     8.7444 7.4059e-05  0.000e+00
       1010     27.087    13.0595  47.945284    12.3190     0.2534     8.7412 1.1887e-04  0.000e+00
       1011     27.130    13.0579  47.945284    10.7185     0.2353     8.7401 7.4059e-05  0.000e+00
       1012     27.186    13.0569  47.974966    11.3975     0.2353     8.7477 1.0000e-12  0.000e+00
       1013     27.265    13.0561  47.945285    13.2405     0.2534     8.7566 5.9128e-05  0.000e+00
       1014     27.347    13.0538  47.885924    14.1135     0.2534     8.7647 5.9128e-05  0.000e+00
       1015     27.401    13.0480  47.856244    12.3190     0.2534     8.7723 4.4200e-05  0.000e+00
       1016     27.443    13.0422  47.856245    11.7855     0.2534     8.7714 1.0000e-12  0.000e+00
       1017     27.492    13.0371  47.885927    11.3005     0.2353     8.7698 8.8992e-05  0.000e+00
       1018     27.564    13.0326  47.915609    13.5800     0.2534     8.7602 2.9274e-05  0.000e+00
       1019     27.640    13.0296  47.796886    14.2590     0.2534     8.7582 2.9274e-05  0.000e+00
       1020     27.711    13.0278  47.885929    13.9195     0.2353     8.7513 1.0393e-04  0.000e+00
       1021     27.766    13.0258  48.004655    12.9495     0.2534     8.7472 2.9274e-05  0.000e+00
       1022     27.815    13.0241  47.945293    11.3975     0.2353     8.7486 2.9274e-05  0.000e+00
       1023     27.861    13.0225  47.915612    12.0765     0.2896     8.7455 4.4200e-05  0.000e+00
       1024     27.905    13.0216  47.915612    11.6885     0.2534     8.7397 2.9274e-05  0.000e+00
       1025     27.955    13.0208  47.826569    12.9980     0.2353     8.7437 1.0000e-12  0.000e+00
       1026     28.019    13.0197  47.856251    13.0465     0.2534     8.7385 1.0393e-04  0.000e+00
       1027     28.090    13.0183  47.856251    13.0950     0.2353     8.7285 1.0393e-04  0.000e+00
       1028     28.163    13.0176  47.945295    13.2890     0.2353     8.7191 1.4351e-05  0.000e+00
       1029     28.230    13.0150  47.945296    12.3675     0.2353     8.7227 2.9274e-05  0.000e+00
       1030     28.291    13.0104  47.945297    11.9310     0.2353     8.7276 1.0000e-12  0.000e+00
       1031     28.340    13.0065  47.945298    12.2220     0.2172     8.7326 1.0000e-12  0.000e+00
       1032     28.376    13.0035  48.004661    11.2520     0.2534     8.7419 1.0000e-12  0.000e+00
       1033     28.411    13.0012  47.945299    12.3190     0.2353     8.7451 1.0393e-04  0.000e+00
       1034     28.460    12.9994  48.004662    13.3375     0.2534     8.7473 7.4059e-05  0.000e+00
       1035     28.524    12.9980  47.945300    14.1620     0.2353     8.7497 1.0000e-12  0.000e+00
       1036     28.591    12.9971  47.945300    13.8710     0.2353     8.7431 5.9128e-05  0.000e+00
       1037     28.657    12.9962  47.945301    12.3675     0.2534     8.7392 1.0393e-04  0.000e+00
       1038     28.731    12.9944  48.004664    12.4645     0.2534     8.7354 5.9128e-05  0.000e+00
       1039     28.795    12.9923  47.974983    12.1250     0.2353     8.7311 1.4351e-05  0.000e+00
       1040     28.838    12.9911  47.945303    11.6400     0.2353     8.7301 4.4200e-05  0.000e+00
       1041     28.872    12.9898  47.974984    12.1735     0.1991     8.7281 2.9274e-05  0.000e+00
       1042     28.921    12.9867  48.004666    12.9980     0.2353     8.7275 4.4200e-05  0.000e+00
       1043     28.997    12.9804  48.004667    14.1620     0.2353     8.7272 1.0393e-04  0.000e+00
       1044     29.069    12.9722  47.974988    14.4530     0.2172     8.7243 1.0000e-12  0.000e+00
       1045     29.129    12.9645  47.945308    13.2405     0.2172     8.7243 5.9128e-05  0.000e+00
       1046     29.179    12.9571  47.915628    10.8155     0.2353     8.7259 2.9274e-05  0.000e+00
       1047     29.240    12.9512  47.974992    11.3975     0.2353     8.7198 1.0393e-04  0.000e+00
       1048     29.300    12.9464  47.915630    11.4945     0.2172     8.7164 7.4059e-05  0.000e+00
       1049     29.343    12.9432  47.915631    12.7555     0.2172     8.7126 1.0000e-12  0.000e+00
       1050     29.366    12.9412  47.974994    12.2705     0.2353     8.7075 1.3381e-04  0.000e+00
       1051     29.389    12.9400  47.945313    12.1735     0.2172     8.6989 7.4059e-05  0.000e+00
       1052     29.439    12.9397  47.885951    13.3375     0.2172     8.6880 1.4351e-05  0.000e+00
       1053     29.515    12.9393  47.915633    14.6470     0.2172     8.6802 4.4200e-05  0.000e+00
       1054     29.599    12.9384  47.915633    14.9865     0.2172     8.6736 5.9128e-05  0.000e+00
       1055     29.671    12.9372  47.945315    14.2105     0.1991     8.6759 7.4059e-05  0.000e+00
       1056     29.727    12.9350  47.915634    11.9795     0.2172     8.6760 1.0000e-12  0.000e+00
       1057     29.771    12.9334  47.945316    11.0580     0.2353     8.6821 5.9128e-05  0.000e+00
       1058     29.806    12.9322  47.945316    11.5430     0.2172     8.6870 1.4875e-04  0.000e+00
       1059     29.843    12.9315  47.915635    13.0950     0.2172     8.6981 1.0393e-04  0.000e+00
       1060     29.880    12.9308  47.945317    13.0465     0.2353     8.7029 2.9274e-05  0.000e+00
       1061     29.927    12.9299  47.945317    13.5315     0.2353     8.7071 1.0000e-12  0.000e+00
       1062     29.986    12.9297  47.945317    13.2405     0.2353     8.7110 7.4059e-05  0.000e+00
       1063     30.043    12.9298  47.945318    12.5130     0.2353     8.7083 7.4059e-05  0.000e+00
       1064     30.081    12.9296  47.915637    11.6885     0.1991     8.7051 1.0393e-04  0.000e+00
       1065     30.108    12.9288  47.915637    11.6885     0.2172     8.7078 5.9128e-05  0.000e+00
       1066     30.142    12.9275  47.885956    11.9795     0.2715     8.6998 5.9128e-05  0.000e+00
       1067     30.200    12.9243  47.915638    13.0950     0.2353     8.6903 2.9274e-05  0.000e+00
       1068     30.283    12.9207  47.796915    13.7740     0.2534     8.6905 1.0000e-12  0.000e+00
       1069     30.364    12.9169  47.826597    14.9380     0.1991     8.6869 2.9274e-05  0.000e+00
       1070     30.425    12.9139  47.856278    13.7740     0.2534     8.6946 1.0000e-12  0.000e+00
       1071     30.473    12.9111  47.826598    11.8340     0.2534     8.6978 7.4059e-05  0.000e+00
       1072     30.517    12.9086  47.856280    11.2035     0.2172     8.6977 7.4059e-05  0.000e+00
       1073     30.566    12.9072  47.915642    11.5915     0.2353     8.7021 7.4059e-05  0.000e+00
       1074     30.622    12.9053  47.885962    12.0765     0.2172     8.7041 1.0000e-12  0.000e+00
       1075     30.679    12.9024  47.856281    12.9495     0.2353     8.7109 8.8992e-05  0.000e+00
       1076     30.740    12.9001  47.856282    11.9795     0.2353     8.7036 1.0000e-12  0.000e+00
       1077     30.801    12.8984  47.826601    11.5915     0.2534     8.6981 1.0000e-12  0.000e+00
       1078     30.867    12.8971  47.856283    11.8825     0.2172     8.6962 1.0000e-12  0.000e+00
       1079     30.931    12.8957  47.796921    11.5915     0.2353     8.6970 1.0000e-12  0.000e+00
       1080     30.988    12.8915  47.796922    11.7855     0.2172     8.6990 2.9274e-05  0.000e+00
       1081     31.043    12.8857  47.796923    11.3005     0.1991     8.6892 1.0000e-12  0.000e+00
       1082     31.090    12.8807  47.796924    10.6700     0.2172     8.6919 2.9274e-05  0.000e+00
       1083     31.153    12.8759  47.856288    11.6400     0.2353     8.6915 1.0000e-12  0.000e+00
       1084     31.221    12.8721  47.945332    12.3675     0.2534     8.6741 5.9128e-05  0.000e+00
       1085     31.279    12.8682  47.945333    12.9010     0.2353     8.6659 4.4200e-05  0.000e+00
       1086     31.327    12.8652  47.945334    12.5130     0.2353     8.6887 4.4200e-05  0.000e+00
       1087     31.384    12.8637  47.945334    11.9310     0.1991     8.7014 2.9274e-05  0.000e+00
       1088     31.454    12.8626  47.945335    12.1250     0.2172     8.6724 5.9128e-05  0.000e+00
       1089     31.518    12.8611  48.004698    12.6100     0.2172     8.6739 2.9274e-05  0.000e+00
       1090     31.568    12.8573  47.975017    11.8825     0.2172     8.6763 2.9274e-05  0.000e+00
       1091     31.619    12.8525  47.945337    11.4460     0.2715     8.6803 5.9128e-05  0.000e+00
       1092     31.675    12.8480  47.945338    12.3190     0.2172     8.6889 1.0000e-12  0.000e+00
       1093     31.733    12.8426  47.945339    12.7555     0.2353     8.6496 2.9274e-05  0.000e+00
       1094     31.775    12.8375  47.945340    11.9310     0.1991     8.6439 7.4059e-05  0.000e+00
       1095     31.816    12.8344  47.915659    11.6885     0.2172     8.6420 5.9128e-05  0.000e+00
       1096     31.871    12.8321  47.826617    12.4160     0.2353     8.6542 1.0000e-12  0.000e+00
       1097     31.927    12.8296  47.945342    12.9980     0.2534     8.6589 7.4059e-05  0.000e+00
       1098     31.979    12.8271  47.885980    12.1250     0.2353     8.6663 1.0000e-12  0.000e+00
       1099     32.027    12.8257  47.915662    11.6400     0.2353     8.6633 8.8992e-05  0.000e+00
       1100     32.086    12.8247  47.915662    12.1250     0.2172     8.6644 1.0000e-12  0.000e+00
       1101     32.145    12.8241  47.885981    11.6400     0.2172     8.6819 1.0000e-12  0.000e+00
       1102     32.191    12.8234  47.856301    11.9795     0.2172     8.6765 1.4351e-05  0.000e+00
       1103     32.224    12.8231  47.856301    11.4460     0.1991     8.6828 1.0000e-12  0.000e+00
       1104     32.271    12.8224  47.826620    11.5430     0.1991     8.6688 5.9128e-05  0.000e+00
       1105     32.341    12.8214  47.589173    12.5130     0.2172     8.6574 2.9274e-05  0.000e+00
       1106     32.414    12.8182  47.678216    14.8410     0.2172     8.6564 1.4351e-05  0.000e+00
       1107     32.478    12.8114  47.737580    12.9980     0.1991     8.6528 1.0000e-12  0.000e+00
       1108     32.536    12.8039  47.856305    12.3190     0.2172     8.6524 1.1887e-04  0.000e+00
       1109     32.589    12.7977  47.796944    11.5430     0.2353     8.6414 1.0393e-04  0.000e+00
       1110     32.649    12.7919  47.796945    11.1550     0.2172     8.6397 4.4200e-05  0.000e+00
       1111     32.709    12.7831  47.796947    12.4645     0.2172     8.6411 1.4351e-05  0.000e+00
       1112     32.762    12.7744  47.826630    12.2220     0.2172     8.6483 5.9128e-05  0.000e+00
       1113     32.811    12.7640  48.064082    12.3190     0.2534     8.6476 1.1887e-04  0.000e+00
       1114     32.870    12.7519  48.242173    12.3190     0.1991     8.6384 2.9274e-05  0.000e+00
       1115     32.928    12.7412  48.331220    12.4645     0.2172     8.6295 4.4200e-05  0.000e+00
       1116     32.989    12.7329  48.271858    12.5615     0.1991     8.6191 1.0000e-12  0.000e+00
       1117     33.045    12.7273  48.449951    12.7070     0.1991     8.6111 8.8992e-05  0.000e+00
       1118     33.103    12.7223  48.449952    12.3675     0.2353     8.5979 2.9274e-05  0.000e+00
       1119     33.168    12.7182  48.509317    12.1735     0.2172     8.5835 7.4059e-05  0.000e+00
       1120     33.238    12.7148  48.449954    12.6585     0.2172     8.5706 1.4351e-05  0.000e+00
       1121     33.314    12.7117  48.509319    14.1620     0.2172     8.5573 7.4059e-05  0.000e+00
       1122     33.374    12.7093  48.449955    13.3860     0.2172     8.5497 8.8992e-05  0.000e+00
       1123     33.417    12.7073  48.449956    12.1250     0.2172     8.5350 1.4351e-05  0.000e+00
       1124     33.461    12.7068  48.449956    12.0280     0.1991     8.5307 1.0000e-12  0.000e+00
       1125     33.527    12.7062  48.449956    12.8040     0.2172     8.5247 1.4351e-05  0.000e+00
       1126     33.610    12.7059  48.509321    15.5685     0.2172     8.5189 1.0393e-04  0.000e+00
       1127     33.689    12.7051  48.509321    15.0350     0.2172     8.5227 2.9274e-05  0.000e+00
       1128     33.748    12.7045  48.509322    12.8040     0.2353     8.5211 4.4200e-05  0.000e+00
       1129     33.802    12.7038  48.539004    12.0765     0.2172     8.5233 4.4200e-05  0.000e+00
       1130     33.862    12.7031  48.509323    13.0465     0.2172     8.5194 1.0000e-12  0.000e+00
       1131     33.930    12.7028  48.568687    14.1620     0.1991     8.5234 1.4351e-05  0.000e+00
       1132     33.995    12.7025  48.717099    13.3860     0.2172     8.5277 4.4200e-05  0.000e+00
       1133     34.058    12.7017  48.657735    12.6585     0.1991     8.5396 8.8992e-05  0.000e+00
       1134     34.111    12.6999  48.717100    12.3190     0.1991     8.5462 1.0000e-12  0.000e+00
       1135     34.163    12.6983  48.717101    12.6585     0.1991     8.5495 2.9274e-05  0.000e+00
       1136     34.207    12.6965  48.509325    12.3190     0.2172     8.5571 2.9274e-05  0.000e+00
       1137     34.258    12.6930  48.509326    12.8525     0.2353     8.5520 1.0393e-04  0.000e+00
       1138     34.323    12.6888  48.509327    13.5315     0.2172     8.5492 1.6370e-04  0.000e+00
       1139     34.395    12.6860  48.449964    14.2105     0.1991     8.5453 1.4351e-05  0.000e+00
       1140     34.471    12.6842  48.390600    13.2890     0.2172     8.5386 1.0000e-12  0.000e+00
       1141     34.549    12.6826  48.271873    13.1920     0.2172     8.5414 1.0000e-12  0.000e+00
       1142     34.627    12.6805  48.271874    14.1135     0.1991     8.5363 1.0000e-12  0.000e+00
       1143     34.689    12.6792  48.182830    13.6285     0.1991     8.5302 1.0000e-12  0.000e+00
       1144     34.733    12.6772  48.242193    12.1735     0.2172     8.5229 1.0000e-12  0.000e+00
       1145     34.785    12.6756  48.212512    12.1250     0.2172     8.5269 8.8992e-05  0.000e+00
       1146     34.856    12.6731  48.331240    13.6770     0.1810     8.5222 1.4351e-05  0.000e+00
       1147     34.939    12.6657  48.420287    15.5685     0.2353     8.5206 4.4200e-05  0.000e+00
       1148     35.018    12.6547  48.539018    15.7625     0.2172     8.5255 4.4200e-05  0.000e+00
       1149     35.089    12.6433  48.509338    13.5800     0.2172     8.5318 1.0000e-12  0.000e+00
       1150     35.148    12.6361  48.509339    13.0465     0.2172     8.5443 7.4059e-05  0.000e+00
       1151     35.208    12.6316  48.539022    13.1435     0.2172     8.5410 1.0393e-04  0.000e+00
       1152     35.273    12.6275  48.539023    13.8710     0.2172     8.5349 4.4200e-05  0.000e+00
       1153     35.356    12.6235  48.746801    13.5800     0.2172     8.5192 1.0000e-12  0.000e+00
       1154     35.435    12.6164  48.865532    15.5685     0.2172     8.5113 4.4200e-05  0.000e+00
       1155     35.495    12.6075  48.924899    14.1620     0.2172     8.4917 8.8992e-05  0.000e+00
       1156     35.548    12.6017  48.895218    12.6100     0.2172     8.4712 7.4059e-05  0.000e+00
       1157     35.602    12.5982  48.924901    12.9010     0.1991     8.4583 1.0000e-12  0.000e+00
       1158     35.679    12.5954  48.984268    14.3560     0.2172     8.4419 4.4200e-05  0.000e+00
       1159     35.766    12.5934  48.984269    16.0050     0.2172     8.4326 7.4059e-05  0.000e+00
       1160     35.835    12.5918  48.924904    15.8595     0.1991     8.4171 7.4059e-05  0.000e+00
       1161     35.872    12.5906  49.073318    15.5200     0.2172     8.4046 1.0000e-12  0.000e+00
       1162     35.879    12.5872  49.043636    12.6585     0.2172     8.3921 7.4059e-05  0.000e+00
       1163     35.896    12.5860  49.103002    12.8040     0.1991     8.3790 2.9274e-05  0.000e+00
       1164     35.960    12.5860  49.192052    15.8110     0.2172     8.3766 7.4059e-05  0.000e+00
       1165     36.046    12.5825  49.251419    17.4115     0.1991     8.3713 1.0000e-12  0.000e+00
       1166     36.129    12.5775  49.281104    16.6840     0.2172     8.3635 5.9128e-05  0.000e+00
       1167     36.179    12.5736  49.310788    14.1620     0.1991     8.3644 4.4200e-05  0.000e+00
       1168     36.175    12.5707  49.310788    12.0280     0.1991     8.3627 1.0000e-12  0.000e+00
       1169     36.147    12.5696  49.221738    12.7555     0.2172     8.3500 7.4059e-05  0.000e+00
       1170     36.131    12.5723  49.132688    12.7555     0.2172     8.3378 1.0393e-04  0.000e+00
       1171     36.154    12.5766  49.192054    12.7070     0.2715     8.3312 4.4200e-05  0.000e+00
       1172     36.189    12.5782  49.429521    13.6285     0.2172     8.3261 5.9128e-05  0.000e+00
       1173     36.234    12.5728  49.429522    14.2590     0.1991     8.3325 7.4059e-05  0.000e+00
       1174     36.286    12.5665  49.459207    15.4715     0.2172     8.3389 2.9274e-05  0.000e+00
       1175     36.345    12.5620  49.459208    14.0650     0.1991     8.3435 2.9274e-05  0.000e+00
       1176     36.392    12.5576  49.577943    13.1435     0.2172     8.3496 1.3381e-04  0.000e+00
       1177     36.442    12.5532  49.577944    13.4345     0.2172     8.3592 1.0000e-12  0.000e+00
       1178     36.519    12.5508  49.577945    14.3560     0.2353     8.3642 2.9274e-05  0.000e+00
       1179     36.610    12.5508  49.637313    18.2360     0.2172     8.3535 1.0000e-12  0.000e+00
       1180     36.683    12.5495  49.666997    16.2960     0.2534     8.3556 1.0393e-04  0.000e+00
       1181     36.707    12.5472  49.696682    13.0465     0.2172     8.3537 7.4059e-05  0.000e+00
       1182     36.696    12.5459  49.637314    12.3675     0.2353     8.3430 1.0393e-04  0.000e+00
       1183     36.683    12.5464  49.666998    12.9495     0.1991     8.3384 1.1887e-04  0.000e+00
       1184     36.689    12.5489  49.637314    12.5130     0.2172     8.3320 1.4351e-05  0.000e+00
       1185     36.688    12.5510  49.607630    12.7070     0.1991     8.3312 1.0393e-04  0.000e+00
       1186     36.676    12.5508  49.577946    12.4645     0.2172     8.3293 1.0000e-12  0.000e+00
       1187     36.672    12.5493  49.518579    12.9980     0.1810     8.3301 1.0000e-12  0.000e+00
       1188     36.698    12.5504  49.577946    12.8525     0.2172     8.3238 2.9274e-05  0.000e+00
       1189     36.736    12.5508  49.637314    15.1320     0.2172     8.3208 1.4351e-05  0.000e+00
       1190     36.745    12.5486  49.577946    13.0950     0.2172     8.3248 2.9274e-05  0.000e+00
       1191     36.715    12.5476  49.577946    12.2705     0.1991     8.3294 5.9128e-05  0.000e+00
       1192     36.679    12.5493  49.518579    12.7070     0.2172     8.3289 5.9128e-05  0.000e+00
       1193     36.683    12.5539  49.577945    12.8040     0.2172     8.3309 5.9128e-05  0.000e+00
       1194     36.729    12.5571  49.518578    13.9195     0.1810     8.3335 1.0000e-12  0.000e+00
       1195     36.772    12.5568  49.637313    15.6170     0.2172     8.3459 2.9274e-05  0.000e+00
       1196     36.775    12.5527  49.607630    13.1920     0.1991     8.3502 2.9274e-05  0.000e+00
       1197     36.742    12.5495  49.637314    11.8825     0.2172     8.3640 8.8992e-05  0.000e+00
       1198     36.718    12.5493  49.518579    12.8040     0.1991     8.3620 1.0393e-04  0.000e+00
       1199     36.741    12.5525  49.577946    13.3860     0.1991     8.3587 1.0000e-12  0.000e+00
       1200     36.817    12.5554  49.577946    14.0650     0.2353     8.3602 2.9274e-05  0.000e+00
       1201     36.903    12.5548  49.666998    15.7140     0.2353     8.3576 1.0000e-12  0.000e+00
       1202     36.945    12.5508  49.637315    13.6285     0.1991     8.3499 5.9128e-05  0.000e+00
       1203     36.930    12.5481  49.637315    12.5615     0.1991     8.3435 4.4200e-05  0.000e+00
       1204     36.888    12.5482  49.459213    12.7555     0.1991     8.3348 1.3381e-04  0.000e+00
       1205     36.886    12.5519  49.459212    12.8525     0.2172     8.3200 1.4351e-05  0.000e+00
       1206     36.924    12.5559  49.518579    12.7555     0.2353     8.3057 1.0000e-12  0.000e+00
       1207     36.964    12.5580  49.577946    12.8525     0.1991     8.3022 7.4059e-05  0.000e+00
       1208     36.975    12.5551  49.577946    12.5130     0.1991     8.3078 7.4059e-05  0.000e+00
       1209     36.964    12.5517  49.459212    12.2705     0.2172     8.3159 7.4059e-05  0.000e+00
       1210     36.964    12.5539  49.370161    12.9495     0.1991     8.3281 2.9274e-05  0.000e+00
       1211     36.992    12.5575  49.429528    13.1920     0.2172     8.3412 1.0000e-12  0.000e+00
       1212     37.025    12.5594  49.429528    13.1435     0.2172     8.3546 4.4200e-05  0.000e+00
       1213     37.039    12.5595  49.429528    13.5315     0.2172     8.3707 2.9274e-05  0.000e+00
       1214     37.026    12.5585  49.429528    12.8525     0.2172     8.3831 1.0000e-12  0.000e+00
       1215     37.004    12.5577  49.370161    12.6100     0.2172     8.3870 2.9274e-05  0.000e+00
       1216     37.005    12.5592  49.459211    12.9010     0.2172     8.3868 1.0000e-12  0.000e+00
       1217     37.032    12.5612  49.370161    13.5800     0.2172     8.3862 2.9274e-05  0.000e+00
       1218     37.073    12.5609  49.429528    13.9680     0.1991     8.3839 4.4200e-05  0.000e+00
       1219     37.114    12.5594  49.429528    14.1620     0.2172     8.3875 7.4059e-05  0.000e+00
       1220     37.141    12.5587  49.429528    14.0650     0.1991     8.3870 2.9274e-05  0.000e+00
       1221     37.146    12.5577  49.429529    12.5130     0.2172     8.3809 1.0000e-12  0.000e+00
       1222     37.134    12.5567  49.429529    11.7855     0.1991     8.3791 1.0000e-12  0.000e+00
       1223     37.130    12.5568  49.459212    12.9980     0.2172     8.3776 2.9274e-05  0.000e+00
       1224     37.149    12.5569  49.459212    13.1435     0.1810     8.3752 1.0393e-04  0.000e+00
       1225     37.166    12.5567  49.518580    12.8040     0.2172     8.3679 1.3381e-04  0.000e+00
       1226     37.160    12.5555  49.518580    12.8040     0.1991     8.3652 5.9128e-05  0.000e+00
       1227     37.136    12.5553  49.459213    12.2220     0.2172     8.3623 1.0000e-12  0.000e+00
       1228     37.127    12.5573  49.459212    12.5615     0.2172     8.3581 4.4200e-05  0.000e+00
       1229     37.150    12.5604  49.518579    12.6585     0.2172     8.3576 7.4059e-05  0.000e+00
       1230     37.173    12.5603  49.518579    12.9495     0.1810     8.3557 4.4200e-05  0.000e+00
       1231     37.180    12.5571  49.577947    11.7370     0.2353     8.3593 2.9274e-05  0.000e+00
       1232     37.161    12.5554  49.459213    11.3490     0.2172     8.3677 5.9128e-05  0.000e+00
       1233     37.134    12.5566  49.518580    12.1735     0.1991     8.3687 8.8992e-05  0.000e+00
       1234     37.137    12.5595  49.459212    12.9495     0.2172     8.3665 1.0393e-04  0.000e+00
       1235     37.164    12.5625  49.518579    12.9495     0.1991     8.3591 7.4059e-05  0.000e+00
       1236     37.181    12.5628  49.637314    13.4345     0.2172     8.3578 7.4059e-05  0.000e+00
       1237     37.180    12.5598  49.518579    12.2705     0.1991     8.3547 8.8992e-05  0.000e+00
       1238     37.162    12.5583  49.518579    11.3490     0.1991     8.3575 5.9128e-05  0.000e+00
       1239     37.151    12.5598  49.459212    12.8040     0.2353     8.3474 2.9274e-05  0.000e+00
       1240     37.145    12.5632  49.518579    12.5615     0.1991     8.3454 1.4351e-05  0.000e+00
       1241     37.147    12.5664  49.518578    12.9010     0.2172     8.3431 1.0000e-12  0.000e+00
       1242     37.151    12.5680  49.459211    12.8525     0.2172     8.3464 1.0000e-12  0.000e+00
       1243     37.161    12.5686  49.518578    12.8525     0.1991     8.3488 2.9274e-05  0.000e+00
       1244     37.172    12.5684  49.518578    13.9195     0.1991     8.3460 5.9128e-05  0.000e+00
       1245     37.174    12.5672  49.518578    12.9495     0.1991     8.3417 1.4351e-05  0.000e+00
       1246     37.161    12.5654  49.518578    11.9795     0.2172     8.3449 8.8992e-05  0.000e+00
       1247     37.138    12.5652  49.518578    12.1250     0.2172     8.3544 1.4351e-05  0.000e+00
       1248     37.125    12.5670  49.459211    12.9980     0.2172     8.3490 1.4351e-05  0.000e+00
       1249     37.134    12.5693  49.459210    12.9980     0.1991     8.3520 1.0000e-12  0.000e+00
       1250     37.155    12.5697  49.459210    13.3860     0.1991     8.3574 8.8992e-05  0.000e+00
       1251     37.171    12.5683  49.459211    13.4830     0.1991     8.3597 8.8992e-05  0.000e+00
       1252     37.163    12.5646  49.459211    11.8340     0.1991     8.3678 1.4351e-05  0.000e+00
       1253     37.145    12.5627  49.518579    12.1250     0.1991     8.3763 1.4351e-05  0.000e+00
       1254     37.128    12.5634  49.459211    12.9495     0.2172     8.3724 1.0393e-04  0.000e+00
       1255     37.131    12.5652  49.518578    12.7555     0.1991     8.3732 2.9274e-05  0.000e+00
       1256     37.138    12.5664  49.518578    13.1920     0.2353     8.3695 1.4351e-05  0.000e+00
       1257     37.150    12.5651  49.518578    12.8040     0.2172     8.3658 7.4059e-05  0.000e+00
       1258     37.153    12.5617  49.518579    11.9795     0.2172     8.3667 7.4059e-05  0.000e+00
       1259     37.145    12.5600  49.518579    12.2220     0.2172     8.3662 1.0000e-12  0.000e+00
       1260     37.135    12.5595  49.518579    11.8825     0.2172     8.3650 2.9274e-05  0.000e+00
       1261     37.122    12.5588  49.518579    12.6100     0.1810     8.3665 1.0000e-12  0.000e+00
       1262     37.119    12.5593  49.459212    12.7070     0.1991     8.3707 4.4200e-05  0.000e+00
       1263     37.129    12.5600  49.518579    12.5130     0.1991     8.3616 5.9128e-05  0.000e+00
       1264     37.147    12.5602  49.518579    13.7740     0.2172     8.3568 7.4059e-05  0.000e+00
       1265     37.149    12.5586  49.459212    13.5800     0.1991     8.3493 1.0000e-12  0.000e+00
       1266     37.131    12.5568  49.459212    11.7370     0.2353     8.3388 4.4200e-05  0.000e+00
       1267     37.110    12.5575  49.459212    12.7555     0.1991     8.3380 5.9128e-05  0.000e+00
       1268     37.109    12.5593  49.518579    13.9195     0.2172     8.3363 1.4351e-05  0.000e+00
       1269     37.126    12.5607  49.459212    12.7555     0.1991     8.3363 1.0000e-12  0.000e+00
       1270     37.140    12.5615  49.429528    12.9980     0.1991     8.3410 5.9128e-05  0.000e+00
       1271     37.137    12.5608  49.429528    12.4160     0.2353     8.3497 1.4351e-05  0.000e+00
       1272     37.120    12.5600  49.429528    12.1250     0.2172     8.3529 2.9274e-05  0.000e+00
       1273     37.105    12.5605  49.459212    12.8525     0.2172     8.3501 1.0000e-12  0.000e+00
       1274     37.110    12.5618  49.429528    12.9010     0.2172     8.3514 1.0000e-12  0.000e+00
       1275     37.132    12.5630  49.459211    13.7740     0.2172     8.3405 1.0000e-12  0.000e+00
       1276     37.150    12.5629  49.429528    14.1135     0.1991     8.3404 1.0000e-12  0.000e+00
       1277     37.146    12.5611  49.459212    12.3675     0.1991     8.3396 4.4200e-05  0.000e+00
       1278     37.120    12.5590  49.429528    11.7370     0.2172     8.3486 7.4059e-05  0.000e+00
       1279     37.100    12.5597  49.459212    13.2405     0.1991     8.3537 1.0000e-12  0.000e+00
       1280     37.098    12.5610  49.459211    13.0950     0.1991     8.3587 7.4059e-05  0.000e+00
       1281     37.114    12.5623  49.459211    13.8225     0.2353     8.3672 2.9274e-05  0.000e+00
       1282     37.122    12.5625  49.459211    12.9010     0.1991     8.3682 4.4200e-05  0.000e+00
       1283     37.119    12.5603  49.429528    12.5615     0.1991     8.3706 1.0000e-12  0.000e+00
       1284     37.113    12.5583  49.459212    11.7855     0.2172     8.3676 5.9128e-05  0.000e+00
       1285     37.113    12.5576  49.459212    12.6100     0.1810     8.3612 5.9128e-05  0.000e+00
       1286     37.109    12.5571  49.459212    13.0465     0.1810     8.3564 7.4059e-05  0.000e+00
       1287     37.104    12.5569  49.518579    12.1250     0.1991     8.3519 1.0000e-12  0.000e+00
       1288     37.091    12.5565  49.459212    11.4945     0.1991     8.3511 8.8992e-05  0.000e+00
       1289     37.091    12.5569  49.518579    13.2890     0.2353     8.3537 1.0000e-12  0.000e+00
       1290     37.107    12.5573  49.577947    13.9680     0.2353     8.3559 5.9128e-05  0.000e+00
       1291     37.121    12.5548  49.577947    13.2405     0.2172     8.3599 4.4200e-05  0.000e+00
       1292     37.118    12.5517  49.637315    12.6100     0.2172     8.3651 4.4200e-05  0.000e+00
       1293     37.097    12.5500  49.577948    11.3490     0.2172     8.3675 1.0393e-04  0.000e+00
       1294     37.071    12.5507  49.577948    12.7555     0.1991     8.3679 7.4059e-05  0.000e+00
       1295     37.073    12.5525  49.518580    12.6100     0.2172     8.3589 2.9274e-05  0.000e+00
       1296     37.091    12.5534  49.518580    13.6285     0.2172     8.3544 7.4059e-05  0.000e+00
       1297     37.112    12.5527  49.577948    13.5800     0.2172     8.3475 5.9128e-05  0.000e+00
       1298     37.110    12.5514  49.577948    13.0465     0.2172     8.3389 4.4200e-05  0.000e+00
       1299     37.088    12.5502  49.607632    11.7370     0.2172     8.3371 1.4351e-05  0.000e+00
       1300     37.066    12.5493  49.518580    11.7855     0.2353     8.3229 1.0000e-12  0.000e+00
       1301     37.063    12.5500  49.577948    13.3375     0.2172     8.3119 2.9274e-05  0.000e+00
       1302     37.078    12.5510  49.607631    14.0165     0.1991     8.3120 7.4059e-05  0.000e+00
       1303     37.094    12.5498  49.637315    13.8710     0.2353     8.3197 7.4059e-05  0.000e+00
       1304     37.099    12.5471  49.637316    12.4160     0.2172     8.3192 1.0000e-12  0.000e+00
       1305     37.085    12.5451  49.607632    11.6885     0.2353     8.3203 2.9274e-05  0.000e+00
       1306     37.068    12.5449  49.577949    12.4645     0.2172     8.3255 1.0000e-12  0.000e+00
       1307     37.072    12.5456  49.667000    13.6285     0.2172     8.3369 1.6370e-04  0.000e+00
       1308     37.086    12.5459  49.637316    13.5800     0.1991     8.3444 2.9274e-05  0.000e+00
       1309     37.094    12.5454  49.637316    13.5800     0.1991     8.3467 2.9274e-05  0.000e+00
       1310     37.087    12.5441  49.667000    12.7555     0.1810     8.3436 2.9274e-05  0.000e+00
       1311     37.073    12.5436  49.637316    11.9310     0.2172     8.3459 2.9274e-05  0.000e+00
       1312     37.064    12.5442  49.637316    12.6585     0.1991     8.3437 1.0393e-04  0.000e+00
       1313     37.071    12.5452  49.607632    12.5130     0.2172     8.3404 1.0000e-12  0.000e+00
       1314     37.086    12.5458  49.637316    13.5315     0.2172     8.3334 7.4059e-05  0.000e+00
       1315     37.099    12.5450  49.637316    13.2890     0.2172     8.3275 7.4059e-05  0.000e+00
       1316     37.096    12.5439  49.607633    12.9495     0.1810     8.3218 1.0000e-12  0.000e+00
       1317     37.090    12.5439  49.696684    12.3675     0.2172     8.3127 7.4059e-05  0.000e+00
       1318     37.092    12.5445  49.607633    13.0950     0.1991     8.3097 7.4059e-05  0.000e+00
       1319     37.103    12.5454  49.577949    13.3375     0.2172     8.3081 7.4059e-05  0.000e+00
       1320     37.104    12.5455  49.637316    13.1435     0.2353     8.3108 2.9274e-05  0.000e+00
       1321     37.091    12.5455  49.577949    12.0765     0.2172     8.3147 7.4059e-05  0.000e+00
       1322     37.076    12.5456  49.637316    12.2705     0.1991     8.3220 7.4059e-05  0.000e+00
       1323     37.082    12.5470  49.637316    13.3375     0.1991     8.3291 2.9274e-05  0.000e+00
       1324     37.100    12.5479  49.607632    14.7925     0.1991     8.3394 2.9274e-05  0.000e+00
       1325     37.115    12.5476  49.637316    13.7740     0.2353     8.3503 2.9274e-05  0.000e+00
       1326     37.113    12.5457  49.667000    13.6285     0.1991     8.3544 1.1887e-04  0.000e+00
       1327     37.097    12.5449  49.577949    11.8825     0.2172     8.3565 1.0000e-12  0.000e+00
       1328     37.083    12.5456  49.696684    13.2405     0.1991     8.3536 4.4200e-05  0.000e+00
       1329     37.083    12.5472  49.667000    13.4345     0.1991     8.3490 1.0000e-12  0.000e+00
       1330     37.090    12.5486  49.637316    13.3860     0.2172     8.3469 5.9128e-05  0.000e+00
       1331     37.102    12.5486  49.696684    12.7555     0.2172     8.3421 7.4059e-05  0.000e+00
       1332     37.104    12.5469  49.667000    12.2705     0.2172     8.3409 1.0000e-12  0.000e+00
       1333     37.096    12.5454  49.637316    11.8340     0.1991     8.3384 1.0000e-12  0.000e+00
       1334     37.089    12.5453  49.667000    12.1250     0.1991     8.3505 4.4200e-05  0.000e+00
       1335     37.090    12.5458  49.696684    12.6100     0.2353     8.3519 1.4351e-05  0.000e+00
       1336     37.088    12.5459  49.696684    14.2105     0.2353     8.3520 7.4059e-05  0.000e+00
       1337     37.086    12.5454  49.607632    12.3675     0.1991     8.3524 1.4351e-05  0.000e+00
       1338     37.077    12.5448  49.696684    12.3675     0.1991     8.3433 2.9274e-05  0.000e+00
       1339     37.057    12.5448  49.637316    12.7070     0.2172     8.3306 1.0000e-12  0.000e+00
       1340     36.990    12.5452  49.607632    11.6885     0.1991     8.3182 2.9274e-05  0.000e+00
       1341     36.854    12.5469  49.518580    12.5615     0.1991     8.3066 4.4200e-05  0.000e+00
       1342     36.689    12.5513  49.518578    12.8040     0.1991     8.2946 1.4351e-05  0.000e+00
       1343     36.530    12.5568  49.459209    13.0465     0.2353     8.2994 1.0000e-12  0.000e+00
       1344     36.387    12.5615  49.370157    12.8525     0.2353     8.3028 1.0393e-04  0.000e+00
       1345     36.248    12.5655  49.429523    12.8525     0.2172     8.3100 1.0393e-04  0.000e+00
       1346     36.103    12.5683  49.429522    12.9495     0.1991     8.3273 2.9274e-05  0.000e+00
       1347     35.949    12.5701  49.370154    12.8040     0.2172     8.3374 1.0000e-12  0.000e+00
       1348     35.803    12.5717  49.340470    12.7070     0.2172     8.3554 4.4200e-05  0.000e+00
       1349     35.674    12.5725  49.310786    12.9980     0.1991     8.3669 2.9274e-05  0.000e+00
       1350     35.547    12.5723  49.310785    12.6100     0.2172     8.3744 8.8992e-05  0.000e+00
       1351     35.411    12.5724  49.340468    12.8040     0.2172     8.3866 1.1887e-04  0.000e+00
       1352     35.266    12.5727  49.251417    12.7070     0.2172     8.3914 5.9128e-05  0.000e+00
       1353     35.119    12.5732  49.221733    12.8040     0.1991     8.3948 5.9128e-05  0.000e+00
       1354     34.967    12.5752  49.102999    12.6585     0.2172     8.4015 1.0000e-12  0.000e+00
       1355     34.831    12.5781  49.043632    12.9980     0.1991     8.4094 1.4351e-05  0.000e+00
       1356     34.699    12.5813  48.984266    12.0765     0.1991     8.4099 5.9128e-05  0.000e+00
       1357     34.565    12.5847  48.865533    12.5615     0.2172     8.4113 4.4200e-05  0.000e+00
       1358     34.424    12.5901  48.776484    13.1435     0.2172     8.4100 1.1887e-04  0.000e+00
       1359     34.275    12.6001  48.568705    12.3190     0.2172     8.4048 2.9274e-05  0.000e+00
       1360     34.122    12.6127  48.509338    12.1735     0.1991     8.4079 2.9274e-05  0.000e+00
       1361     33.979    12.6241  48.509336    12.2705     0.1991     8.4124 1.0393e-04  0.000e+00
       1362     33.837    12.6336  48.509333    12.1250     0.1991     8.4167 5.9128e-05  0.000e+00
       1363     33.695    12.6412  48.539014    12.3190     0.2172     8.4355 1.0000e-12  0.000e+00
       1364     33.554    12.6469  48.568694    12.3675     0.2172     8.4590 2.9274e-05  0.000e+00
       1365     33.422    12.6541  48.539010    12.1250     0.2172     8.4918 1.4351e-05  0.000e+00
       1366     33.282    12.6606  48.598373    12.1250     0.2172     8.5189 5.9128e-05  0.000e+00
       1367     33.138    12.6667  48.568689    12.0765     0.2172     8.5452 1.4351e-05  0.000e+00
       1368     32.994    12.6721  48.598370    12.3675     0.2172     8.5672 7.4059e-05  0.000e+00
       1369     32.859    12.6763  48.509322    12.0765     0.1991     8.5793 2.9274e-05  0.000e+00
       1370     32.731    12.6807  48.568685    12.3190     0.2172     8.5892 5.9128e-05  0.000e+00
       1371     32.597    12.6854  48.539002    12.7070     0.2172     8.5821 4.4200e-05  0.000e+00
       1372     32.459    12.6890  48.509318    12.5130     0.2353     8.5770 2.9274e-05  0.000e+00
       1373     32.332    12.6923  48.390589    12.1735     0.2172     8.5776 1.4351e-05  0.000e+00
       1374     32.218    12.6978  48.331224    12.1735     0.2353     8.5770 1.0393e-04  0.000e+00
       1375     32.095    12.7042  48.331222    12.4160     0.2172     8.5727 7.4059e-05  0.000e+00
       1376     31.953    12.7103  48.123449    12.4160     0.2172     8.5708 2.9274e-05  0.000e+00
       1377     31.800    12.7202  48.064084    11.8825     0.2172     8.5696 1.0000e-12  0.000e+00
       1378     31.663    12.7320  48.034400    11.7370     0.2353     8.5724 4.4200e-05  0.000e+00
       1379     31.553    12.7404  48.064079    11.8825     0.2534     8.5814 4.4200e-05  0.000e+00
       1380     31.448    12.7460  47.915671    11.9310     0.2172     8.5832 1.0393e-04  0.000e+00
       1381     31.323    12.7532  47.975032    12.0765     0.2353     8.5942 5.9128e-05  0.000e+00
       1382     31.178    12.7603  47.945349    11.7370     0.2353     8.6127 1.0393e-04  0.000e+00
       1383     31.038    12.7689  47.945347    11.8340     0.1991     8.6330 1.0000e-12  0.000e+00
       1384     30.913    12.7791  48.004708    11.5915     0.2353     8.6507 2.9274e-05  0.000e+00
       1385     30.795    12.7879  47.945343    11.6400     0.2172     8.6595 1.0000e-12  0.000e+00
       1386     30.671    12.7947  47.885979    11.9310     0.2172     8.6725 5.9128e-05  0.000e+00
       1387     30.537    12.8027  47.945340    11.6885     0.1991     8.6743 1.0000e-12  0.000e+00
       1388     30.411    12.8104  47.915657    11.3975     0.1991     8.6814 1.0000e-12  0.000e+00
       1389     30.293    12.8190  47.945336    11.7855     0.1991     8.6801 1.0000e-12  0.000e+00
       1390     30.169    12.8266  47.915653    11.7370     0.2172     8.6834 1.0000e-12  0.000e+00
       1391     30.039    12.8353  47.826608    11.2520     0.2172     8.6870 1.0000e-12  0.000e+00
       1392     29.899    12.8439  47.915649    11.5430     0.1991     8.6859 1.0000e-12  0.000e+00
       1393     29.776    12.8513  47.856285    11.3490     0.2353     8.6874 8.8992e-05  0.000e+00
       1394     29.663    12.8578  47.885965    11.1065     0.2172     8.6886 1.0393e-04  0.000e+00
       1395     29.556    12.8627  47.915645    10.9610     0.2534     8.6912 1.0000e-12  0.000e+00
       1396     29.431    12.8669  47.856281    11.3975     0.2172     8.6914 7.4059e-05  0.000e+00
       1397     29.304    12.8733  47.945323    11.0095     0.2172     8.6894 8.8992e-05  0.000e+00
       1398     29.171    12.8804  47.915640    11.2520     0.2353     8.6894 1.0000e-12  0.000e+00
       1399     29.039    12.8883  47.915638    10.9610     0.1991     8.6901 7.4059e-05  0.000e+00
       1400     28.909    12.8958  47.945318    11.2520     0.2172     8.6967 8.8992e-05  0.000e+00
       1401     28.792    12.9019  47.915635    11.1550     0.1991     8.6962 2.9274e-05  0.000e+00
       1402     28.683    12.9066  47.945315    11.0095     0.2534     8.7028 1.0000e-12  0.000e+00
       1403     28.564    12.9114  47.945314    10.8640     0.2172     8.7034 1.0000e-12  0.000e+00
       1404     28.428    12.9149  48.004675    10.8640     0.2172     8.6985 4.4200e-05  0.000e+00
       1405     28.288    12.9212  47.974992    11.0580     0.2534     8.6955 8.8992e-05  0.000e+00
       1406     28.158    12.9281  47.945309    10.9610     0.2172     8.6948 1.0000e-12  0.000e+00
       1407     28.040    12.9354  47.945308    10.9610     0.2353     8.6978 5.9128e-05  0.000e+00
       1408     27.929    12.9419  47.974987    11.0095     0.2172     8.7010 4.4200e-05  0.000e+00
       1409     27.806    12.9470  48.004667    10.9125     0.2353     8.6930 4.4200e-05  0.000e+00
       1410     27.667    12.9516  48.004666    10.8640     0.2353     8.6957 1.0393e-04  0.000e+00
       1411     27.526    12.9574  47.974983    10.7670     0.2172     8.6851 2.9274e-05  0.000e+00
       1412     27.407    12.9646  48.004663    10.8155     0.2172     8.7124 2.9274e-05  0.000e+00
       1413     27.296    12.9720  47.945298    10.8155     0.2172     8.7076 8.8992e-05  0.000e+00
       1414     27.182    12.9779  47.915616    10.4760     0.2353     8.7056 4.4200e-05  0.000e+00
       1415     27.049    12.9828  48.004658    10.6215     0.2353     8.6655 7.4059e-05  0.000e+00
       1416     26.920    12.9883  47.945294    10.4760     0.2353     8.6801 1.0393e-04  0.000e+00
       1417     26.801    12.9934  47.945293    10.6700     0.2172     8.7169 1.0000e-12  0.000e+00
       1418     26.689    12.9977  47.945292    10.4760     0.2353     8.7131 1.0393e-04  0.000e+00
       1419     26.567    13.0020  47.945290    10.8155     0.2353     8.7100 2.9274e-05  0.000e+00
       1420     26.431    13.0065  47.945289    10.6700     0.2534     8.7108 4.4200e-05  0.000e+00
       1421     26.288    13.0125  47.974969    10.3790     0.2534     8.7243 1.0393e-04  0.000e+00
       1422     26.157    13.0202  48.004648    10.4275     0.2534     8.7278 4.4200e-05  0.000e+00
       1423     26.043    13.0274  48.004647    10.3305     0.2353     8.7388 1.0000e-12  0.000e+00
       1424     25.935    13.0326  48.034327    10.6215     0.2172     8.7239 4.4200e-05  0.000e+00
       1425     25.812    13.0368  48.064007    10.2820     0.2534     8.7219 1.4351e-05  0.000e+00
       1426     25.676    13.0400  48.064006    10.2820     0.2353     8.7361 1.0000e-12  0.000e+00
       1427     25.539    13.0432  48.093686    10.4275     0.2172     8.7464 1.0000e-12  0.000e+00
       1428     25.415    13.0460  48.064003    10.3305     0.2353     8.7512 5.9128e-05  0.000e+00
       1429     25.289    13.0482  48.123365    10.3790     0.2534     8.7575 7.4059e-05  0.000e+00
       1430     25.156    13.0502  48.093683    10.4760     0.2534     8.7596 7.4059e-05  0.000e+00
       1431     25.014    13.0520  48.182727    10.2820     0.2534     8.7575 1.0000e-12  0.000e+00
       1432     24.877    13.0538  48.182726    10.1850     0.2172     8.7544 5.9128e-05  0.000e+00
       1433     24.738    13.0556  48.182725    10.2335     0.2534     8.7499 1.0000e-12  0.000e+00
       1434     24.606    13.0573  48.182724     9.9425     0.2172     8.7451 2.9274e-05  0.000e+00
       1435     24.479    13.0593  48.212405     9.8940     0.2353     8.7359 5.9128e-05  0.000e+00
       1436     24.363    13.0625  48.271767     9.8455     0.2715     8.7354 7.4059e-05  0.000e+00
       1437     24.252    13.0651  48.242084     9.6030     0.2534     8.7325 1.0000e-12  0.000e+00
       1438     24.121    13.0662  48.271765     9.5545     0.2534     8.7280 2.9274e-05  0.000e+00
       1439     23.984    13.0689  48.331128     9.5060     0.2715     8.7259 5.9128e-05  0.000e+00
       1440     23.857    13.0753  48.449853     9.4575     0.1991     8.7146 1.4351e-05  0.000e+00
       1441     23.738    13.0832  48.509216     9.3605     0.2353     8.7069 1.0393e-04  0.000e+00
       1442     23.617    13.0891  48.509214     9.1180     0.2353     8.7090 1.1887e-04  0.000e+00
       1443     23.493    13.0950  48.657623     9.4090     0.2353     8.7150 8.8992e-05  0.000e+00
       1444     23.375    13.1032  48.776351     9.1180     0.2172     8.7253 1.0393e-04  0.000e+00
       1445     23.256    13.1119  48.835714     8.9725     0.2353     8.7287 1.3381e-04  0.000e+00
       1446     23.130    13.1184  48.806030     9.1665     0.2353     8.7365 1.0000e-12  0.000e+00
       1447     23.006    13.1236  48.924759     8.9240     0.2534     8.7427 1.4351e-05  0.000e+00
       1448     22.883    13.1285  48.924758     9.0695     0.2534     8.7458 2.9274e-05  0.000e+00
       1449     22.767    13.1330  48.984122     8.9725     0.2353     8.7361 1.0000e-12  0.000e+00
       1450     22.664    13.1372  48.984121     8.7300     0.2534     8.7236 8.8992e-05  0.000e+00
       1451     22.555    13.1399  49.043485     8.7785     0.2715     8.7104 2.5125e-03  0.000e+00
       1452     22.424    13.1430  49.132533     8.7785     0.2715     8.7023 3.0363e-03  0.000e+00
       1453     22.291    13.1465  49.132532     8.8755     0.2172     8.7017 1.9819e-02  0.000e+00
       1454     22.150    13.1507  49.191896     8.7785     0.2534     8.6915 2.7641e-02  0.000e+00
       1455     22.001    13.1546  49.132529     9.0210     0.2534     8.6910 3.7481e-02  0.000e+00
       1456     21.855    13.1577  49.191894     8.7785     0.2534     8.6913 5.1470e-02  0.000e+00
       1457     21.735    13.1604  49.221576     8.6815     0.2534     8.6961 6.7969e-02  0.000e+00
       1458     21.630    13.1629  49.191892     8.7300     0.2534     8.6967 8.8280e-02  0.000e+00
       1459     21.513    13.1643  49.221574     8.7785     0.2715     8.7007 9.8585e-02  0.000e+00
       1460     21.375    13.1650  49.310623     8.4390     0.2534     8.6970 1.1859e-01  0.000e+00
       1461     21.242    13.1667  49.429356     8.5360     0.2715     8.6991 1.3333e-01  0.000e+00
       1462     21.128    13.1695  49.369988     8.7785     0.2715     8.6986 1.5349e-01  0.000e+00
       1463     21.027    13.1719  49.369987     8.1480     0.2715     8.6931 1.6879e-01  0.000e+00
       1464     20.911    13.1732  49.429353     8.1480     0.2534     8.6937 1.8755e-01  0.000e+00
       1465     20.783    13.1751  49.518403     7.9540     0.2534     8.6964 2.1508e-01  0.000e+00
       1466     20.654    13.1781  49.577769     7.7600     0.2715     8.6968 2.4755e-01  0.000e+00
       1467     20.528    13.1819  49.696502     7.9055     0.2715     8.6832 2.8542e-01  0.000e+00
       1468     20.421    13.1859  49.666817     7.9055     0.3077     8.6753 2.9880e-01  0.000e+00
       1469     20.317    13.1877  49.637133     7.7600     0.2896     8.6686 3.2299e-01  0.000e+00
       1470     20.197    13.1894  49.755867     8.1965     0.2715     8.6682 3.5616e-01  0.000e+00
       1471     20.069    13.1934  49.785550     7.7115     0.2896     8.6635 4.0176e-01  0.000e+00
       1472     19.950    13.1995  49.785548     7.8085     0.2896     8.6621 4.3701e-01  0.000e+00
       1473     19.829    13.2042  49.844915     7.6145     0.2715     8.6677 4.9248e-01  0.000e+00
       1474     19.711    13.2113  50.023018     7.4690     0.2715     8.6776 5.4130e-01  0.000e+00
       1475     19.603    13.2213  50.023016     7.7600     0.2896     8.6791 5.8843e-01  0.000e+00
       1476     19.491    13.2276  50.052699     7.3720     0.3258     8.6755 6.4896e-01  0.000e+00
       1477     19.360    13.2318  50.112067     7.4205     0.2896     8.6721 7.2085e-01  0.000e+00
       1478     19.252    13.2391  50.082380     7.3720     0.2896     8.6677 7.9437e-01  0.000e+00
       1479     19.142    13.2455  50.171432     7.3720     0.3258     8.6632 8.5722e-01  0.000e+00
       1480     19.024    13.2495  50.171431     7.6145     0.2715     8.6587 9.3993e-01  0.000e+00
       1481     18.908    13.2525  50.141746     7.3720     0.2715     8.6486 1.0128e+00  0.000e+00
       1482     18.786    13.2560  50.230798     7.1295     0.2896     8.6440 1.1056e+00  0.000e+00
       1483     18.647    13.2601  50.290166     7.1295     0.2715     8.6488 1.2331e+00  0.000e+00
       1484     18.508    13.2641  50.349534     7.0325     0.2715     8.6517 1.3561e+00  0.000e+00
       1485     18.374    13.2689  50.349533     6.8385     0.2896     8.6565 1.4818e+00  0.000e+00
       1486     18.262    13.2737  50.438586     6.6445     0.2715     8.6604 1.5908e+00  0.000e+00
       1487     18.186    13.2781  50.379215     6.7900     0.3077     8.6678 1.6587e+00  0.000e+00
       1488     18.099    13.2815  50.438584     6.9355     0.2715     8.6765 1.7644e+00  0.000e+00
       1489     17.980    13.2832  50.527638     6.4505     0.2896     8.6823 1.9413e+00  0.000e+00
       1490     17.855    13.2869  50.646378     6.2565     0.3077     8.6857 2.0911e+00  0.000e+00
       1491     17.738    13.2932  50.646376     6.2080     0.3077     8.6826 2.2475e+00  0.000e+00
       1492     17.615    13.2960  50.676060     6.2080     0.2896     8.6824 2.4567e+00  0.000e+00
       1493     17.491    13.2991  50.765115     6.1595     0.2896     8.6788 2.5952e+00  0.000e+00
       1494     17.365    13.3053  50.883855     6.1595     0.2715     8.6752 2.7477e+00  0.000e+00
       1495     17.238    13.3132  51.061968     6.2080     0.2896     8.6628 2.9920e+00  0.000e+00
       1496     17.112    13.3228  51.091652     5.8685     0.3077     8.6567 3.2475e+00  0.000e+00
       1497     16.976    13.3316  51.240080     5.8200     0.2896     8.6546 3.5267e+00  0.000e+00
       1498     16.844    13.3408  51.358822     5.8685     0.3258     8.6541 3.8735e+00  0.000e+00
       1499     16.724    13.3524  51.418192     5.8200     0.3620     8.6484 4.1729e+00  0.000e+00
       1500     16.613    13.3627  51.447877     5.9655     0.3077     8.6519 4.4676e+00  0.000e+00
       1501     16.504    13.3702  51.418188     5.7715     0.3077     8.6512 4.8154e+00  0.000e+00
       1502     16.399    13.3768  51.536933     5.8685     0.2896     8.6497 5.0842e+00  0.000e+00
       1503     16.284    13.3845  51.477558     5.9170     0.3077     8.6535 5.5212e+00  0.000e+00
       1504     16.182    13.3890  51.566616     5.8200     0.2896     8.6476 5.9220e+00  0.000e+00
       1505     16.112    13.3955  51.596301     6.1595     0.3077     8.6444 6.0748e+00  0.000e+00
       1506     16.031    13.4027  51.685360     5.5775     0.3258     8.6416 6.3797e+00  0.000e+00
       1507     15.923    13.4111  51.625985     5.8200     0.3077     8.6419 6.9324e+00  0.000e+00
       1508     15.811    13.4154  51.685357     5.7715     0.3258     8.6449 7.3853e+00  0.000e+00
       1509     15.697    13.4175  51.625982     5.5775     0.2896     8.6517 7.9474e+00  0.000e+00
       1510     15.592    13.4202  51.744729     5.5290     0.3258     8.6575 8.5534e+00  0.000e+00
       1511     15.497    13.4255  51.774414     5.6745     0.3439     8.6618 8.9460e+00  0.000e+00
       1512     15.395    13.4308  51.804100     5.6745     0.3258     8.6690 9.5830e+00  0.000e+00
       1513     15.281    13.4340  51.833786     5.7715     0.3258     8.6664 1.0360e+01  0.000e+00
       1514     15.186    13.4378  51.833784     5.5290     0.3439     8.6594 1.0821e+01  0.000e+00
       1515     15.090    13.4416  51.833783     5.3835     0.3258     8.6544 1.1484e+01  0.000e+00
       1516     14.966    13.4435  51.922844     5.6745     0.3439     8.6527 1.2493e+01  0.000e+00
       1517     14.843    13.4484  51.833781     5.6260     0.3258     8.6516 1.3333e+01  0.000e+00
       1518     14.728    13.4567  51.893153     5.4805     0.3439     8.6464 1.4197e+01  0.000e+00
       1519     14.625    13.4623  51.833778     5.3835     0.3439     8.6381 1.4653e+01  0.000e+00
       1520     14.531    13.4678  51.833776     5.5775     0.3620     8.6339 1.5337e+01  0.000e+00
       1521     14.420    13.4730  51.833775     5.3835     0.3620     8.6374 1.6257e+01  0.000e+00
       1522     14.297    13.4770  51.863460     5.4320     0.3801     8.6392 1.7481e+01  0.000e+00
       1523     14.166    13.4811  51.952520     5.3350     0.3620     8.6409 1.8644e+01  0.000e+00
       1524     14.041    13.4850  52.011894     5.1895     0.3620     8.6499 1.9849e+01  0.000e+00
       1525     13.915    13.4893  51.952518     5.2380     0.3801     8.6593 2.1083e+01  0.000e+00
       1526     13.789    13.4935  52.071266     5.0440     0.3801     8.6715 2.2237e+01  0.000e+00
       1527     13.654    13.4985  52.160326     4.8985     0.4163     8.6847 2.3536e+01  0.000e+00
       1528     13.514    13.5039  52.219700     4.7530     0.4344     8.6926 2.4810e+01  0.000e+00
       1529     13.391    13.5094  52.338449     4.7045     0.5068     8.7032 2.5987e+01  0.000e+00
       1530     13.282    13.5141  52.457199     4.3165     0.5792     8.7115 2.6957e+01  0.000e+00
       1531     13.172    13.5182  52.427510     4.3165     0.6154     8.7076 2.8186e+01  0.000e+00
       1532     13.053    13.5220  52.635325     3.9770     0.6697     8.7009 2.9213e+01  0.000e+00
       1533     12.934    13.5284  52.605635     3.7830     0.6154     8.7011 3.0528e+01  0.000e+00
       1534     12.810    13.5332  52.932206     3.6860     0.6335     8.6969 3.1874e+01  0.000e+00
       1535     12.695    13.5406  53.110337     3.7345     0.6516     8.6882 3.3105e+01  0.000e+00
       1536     12.577    13.5505  53.525984     3.4435     0.6154     8.6831 3.4425e+01  0.000e+00
       1537     12.455    13.5658  54.001019     3.5405     0.5611     8.6768 3.6025e+01  0.000e+00
       1538     12.334    13.5936  54.357300     3.3465     0.5430     8.6707 3.7553e+01  0.000e+00
       1539     12.214    13.6276  54.594821     2.8130     0.4887     8.6696 3.9043e+01  0.000e+00
       1540     12.087    13.6574  55.099571     2.8130     0.4887     8.6640 4.0786e+01  0.000e+00
       1541     11.949    13.6932  55.515255     2.5705     0.3982     8.6577 4.2703e+01  0.000e+00
       1542     11.806    13.7314  55.782482     2.5220     0.4163     8.6679 4.4656e+01  0.000e+00
       1543     11.693    13.7636  55.990327     2.4735     0.4344     8.6848 4.6166e+01  0.000e+00
       1544     11.591    13.7913  56.168482     2.3280     0.4163     8.7132 4.6961e+01  0.000e+00
       1545     11.472    13.8127  56.109091     2.2795     0.4163     8.7530 4.8481e+01  0.000e+00
       1546     11.331    13.8234  56.613883     2.1340     0.4163     8.8016 5.0724e+01  0.000e+00
       1547     11.197    13.8398  56.881128     2.1340     0.3982     8.8401 5.2569e+01  0.000e+00
       1548     11.064    13.8575  57.088987     2.1340     0.3620     8.8764 5.4051e+01  0.000e+00
       1549     10.949    13.8725  57.237459     1.9885     0.4163     8.9002 5.5898e+01  0.000e+00
       1550     10.831    13.8880  57.356236     2.0370     0.4344     8.9248 5.8176e+01  0.000e+00
       1551     10.698    13.9020  57.831363     1.8915     0.4344     8.9523 6.0759e+01  0.000e+00
       1552     10.554    13.9238  58.158017     1.8430     0.4344     8.9737 6.2769e+01  0.000e+00
       1553     10.420    13.9549  58.276797     1.7460     0.4344     8.9934 6.4584e+01  0.000e+00
       1554     10.296    13.9846  58.633154     1.6490     0.4344     9.0283 6.6790e+01  0.000e+00
       1555     10.181    14.0171  59.583481     1.5520     0.3982     9.0660 6.9194e+01  0.000e+00
       1556     10.051    14.0803  59.731961     1.4065     0.3982     9.0968 7.1395e+01  0.000e+00
       1557      9.910    14.1415  60.622934     1.2610     0.4344     9.1380 7.3174e+01  0.000e+00
       1558      9.773    14.2105  61.484244     1.2125     0.3982     9.1699 7.4696e+01  0.000e+00
       1559      9.643    14.3146  62.048559     1.1155     0.4525     9.1954 7.6410e+01  0.000e+00
       1560      9.514    14.4284  64.662513     0.9700     0.4344     9.2264 7.9229e+01  0.000e+00
       1561      9.403    14.6659  68.346381     1.0185     0.4344     9.2369 8.1104e+01  0.000e+00
       1562      9.284    15.1003  72.179473     0.9700     0.4887     9.2424 8.3169e+01  0.000e+00
       1563      9.144    15.7220  78.599346     0.8245     0.4525     9.2593 8.6146e+01  0.000e+00
       1564      9.004    16.4937  74.913335     0.8245     0.4163     9.3033 8.9403e+01  0.000e+00
       1565      8.870    16.8027  74.586325     0.8245     0.4344     9.4894 9.3093e+01  0.000e+00
       1566      8.728    16.9170  77.439718     0.7760     0.3982     9.6028 9.6154e+01  0.000e+00
       1567      8.605    17.1706  78.866517     0.7760     0.4344     9.5544 1.0017e+02  0.000e+00
       1568      8.483    17.4864  79.074528     0.7760     0.4344     9.4454 1.0447e+02  0.000e+00
       1569      8.355    17.7137  82.701579     0.7760     0.4344     9.3215 1.0032e+02  0.000e+00
       1570      8.213    18.0627  83.385358     0.8730     0.4163     9.1283 1.2366e+02  0.000e+00
       1571      8.076    18.3846  82.968996     0.7760     0.4706     8.9504 1.1169e+02  0.000e+00
       1572      7.955    18.5402  83.771774     0.7760     0.4344     8.8211 1.1205e+02  0.000e+00
       1573      7.842    18.6833  84.455643     0.8245     0.4525     8.6875 1.1431e+02  0.000e+00
       1574      7.712    18.8410  85.109794     0.7275     0.4163     8.5973 1.2247e+02  0.000e+00
       1575      7.571    18.9846  85.169227     0.8245     0.3982     8.5331 1.3372e+02  0.000e+00
       1576      7.437    19.0803  85.109726     0.7275     0.4525     8.4724 1.3909e+02  0.000e+00
       1577      7.319    19.1256  85.377344     0.7760     0.4163     8.4153 1.3751e+02  0.000e+00
       1578      7.211    19.1684  85.526017     0.7760     0.4344     8.3447 1.4319e+02  0.000e+00
       1579      7.087    19.2106  85.644954     0.7760     0.3982     8.2764 1.5152e+02  0.000e+00
       1580      6.952    19.2556  85.823365     0.7760     0.4344     8.2260 1.5990e+02  0.000e+00
       1581      6.823    19.2933  85.644928     0.7760     0.4163     8.1939 1.6331e+02  0.000e+00
       1582      6.695    19.3048  85.763874     0.7760     0.3801     8.1822 1.5747e+02  0.000e+00
       1583      6.582    19.3152  85.823346     0.8245     0.4163     8.1689 1.5607e+02  0.000e+00
       1584      6.468    19.3307  85.793603     0.7760     0.4344     8.1611 1.7272e+02  0.000e+00
       1585      6.335    19.3448  85.912549     0.7760     0.4525     8.1670 1.8740e+02  0.000e+00
       1586      6.197    19.3647  85.912542     0.7760     0.4163     8.1766 1.9654e+02  0.000e+00
       1587      6.065    19.3787  85.972013     0.7760     0.4344     8.1850 1.8681e+02  0.000e+00
       1588      5.948    19.3867  85.942272     0.7760     0.4344     8.2117 1.9448e+02  0.000e+00
       1589      5.838    19.3955  85.972006     0.7760     0.4706     8.2200 2.1145e+02  0.000e+00
       1590      5.715    19.4026  86.001741     0.7760     0.4525     8.2460 2.1998e+02  0.000e+00
       1591      5.583    19.4120  86.031475     0.8245     0.3982     8.2324 2.1825e+02  0.000e+00
       1592      5.456    19.4195  86.031472     0.7275     0.4344     8.2380 2.4107e+02  0.000e+00
       1593      5.336    19.4227  86.061208     0.6790     0.4525     8.2447 2.5763e+02  0.000e+00
       1594      5.214    19.4245  86.120683     0.7760     0.3982     8.2479 2.4794e+02  0.000e+00
       1595      5.115    19.4336  86.031466     0.7760     0.4163     8.2521 2.6493e+02  0.000e+00
       1596      5.005    19.4391  86.061201     0.7760     0.4163     8.2635 2.7527e+02  0.000e+00
       1597      4.872    19.4462  86.031460     0.8245     0.4163     8.2824 2.5940e+02  0.000e+00
       1598      4.745    19.4541  86.001719     0.7760     0.4163     8.2992 2.8457e+02  0.000e+00
       1599      4.617    19.4517  86.031456     1.0185     0.3982     8.3278 2.7839e+02  0.000e+00
       1600      4.486    19.4504  86.061194     0.7760     0.3982     8.3416 2.9537e+02  0.000e+00
       1601      4.359    19.4559  86.090929     0.7275     0.4163     8.3507 3.1433e+02  0.000e+00
       1602      4.238    19.4578  86.031452     0.7760     0.4163     8.3541 3.1240e+02  0.000e+00
       1603      4.115    19.4612  86.090926     0.7760     0.4344     8.3504 3.0379e+02  0.000e+00
       1604      3.979    19.4669  86.061185     0.8245     0.3801     8.3494 3.8526e+02  0.000e+00
       1605      3.844    19.4722  86.061182     0.7760     0.4163     8.3468 3.5063e+02  0.000e+00
       1606      3.718    19.4715  86.090919     0.8245     0.4163     8.3373 3.5510e+02  0.000e+00
       1607      3.618    19.4713  86.120657     0.6790     0.4163     8.3299 3.3251e+02  0.000e+00
       1608      3.500    19.4761  86.090916     0.6790     0.3620     8.3292 3.2278e+02  0.000e+00
       1609      3.354    19.4789  86.120652     0.8245     0.3801     8.3375 4.5198e+02  0.000e+00
       1610      3.218    19.4848  86.120650     0.8245     0.3801     8.3448 4.5637e+02  0.000e+00
       1611      3.097    19.4882  86.090910     0.7760     0.3982     8.3571 3.4205e+02  0.000e+00
       1612      2.974    19.4890  86.120647     0.8245     0.4163     8.3699 3.8894e+02  0.000e+00
       1613      2.854    19.4902  86.120645     0.8245     0.3801     8.3854 5.3852e+02  0.000e+00
       1614      2.725    19.4963  86.150381     0.8245     0.3620     8.3932 3.9792e+02  0.000e+00
       1615      2.587    19.4981  86.120641     0.6790     0.3801     8.4001 4.8158e+02  0.000e+00
       1616      2.456    19.5007  86.150377     0.8730     0.2896     8.3906 6.3411e+02  0.000e+00
       1617      2.322    19.5047  86.120637     0.8245     0.3801     8.3845 4.2138e+02  0.000e+00
       1618      2.193    19.5072  86.120635     0.7760     0.3077     8.3793 5.6241e+02  0.000e+00
       1619      2.074    19.5132  86.150370     0.7275     0.2534     8.3744 7.6057e+02  0.000e+00
       1620      1.959    19.5180  86.120630     2.0855     0.2896     8.3677 6.1437e+02  0.000e+00
       1621      1.822    19.5193  86.150367     0.9215     0.3077     8.3691 6.1621e+02  0.000e+00
       1622      1.680    19.5182  86.180104     0.7275     0.2172     8.3723 6.7138e+02  0.000e+00
       1623      1.546    19.5221  86.120625     0.8245     0.3258     8.3701 7.6151e+02  0.000e+00
       1624      1.414    19.5246  86.150362     0.7275     0.2534     8.3759 4.4890e+02  0.000e+00
       1625      1.292    19.5278  86.180098     0.8730     0.3077     8.3664 7.2102e+02  0.000e+00
       1626      1.168    19.5310  86.209834     0.6790     0.2896     8.3553 9.8125e+02  0.000e+00
       1627      1.022    19.5349  86.180094     0.8730     0.2896     8.3490 5.4222e+02  0.000e+00
       1628      0.879    19.5400  86.180091     0.7275     0.2353     8.3492 7.0647e+02  0.000e+00
       1629      0.755    19.5438  86.209827     0.9700     0.2715     8.3556 7.2955e+02  0.000e+00
       1630      0.642    19.5466  86.120611     0.7275     0.2534     8.3678 9.5909e+02  0.000e+00
       1631      0.522    19.5501  86.239562     0.5820     0.3439     8.3759 1.2500e+03  0.000e+00
       1632      0.403    19.5506  86.209823     0.4850     0.2172     8.3825 8.8184e+02  0.000e+00
       1633      0.263    19.5527  86.180083     0.8730     0.1810     8.3919 1.2116e+03  0.000e+00
       1634      0.117    19.5551  86.239557     0.7760     0.3258     8.3977 1.0431e+03  0.000e+00
       1635      0.049    19.5583  86.239556     0.1940     0.2896     8.3985 1.2220e+03  0.000e+00
       1636      0.049    19.5604  86.239555     1.0670    -0.1629     8.3974 9.3333e+02  0.000e+00
       1637      0.059    19.5653  86.239554     0.2910     0.2172     8.3928 1.1632e+03  0.000e+00
       1638      0.063    19.5722  86.239552     0.3395    -0.3258     8.3870 1.3474e+03  0.000e+00
       1639      0.051    19.5792  86.239550    -0.0970     0.0724     8.3805 1.1773e+03  0.000e+00
       1640      0.031    19.5848  86.299025     0.2910    -0.0724     8.3703 1.5688e+03  0.000e+00
       1641      0.020    19.5876  86.239547     1.6975     0.2353     8.3670 9.9200e+02  0.000e+00
       1642      0.033    19.5886  86.239547     1.4550     0.2715     8.3614 1.3041e+03  0.000e+00
       1643      0.050    19.5879  86.239548     1.0185     0.3620     8.3584 1.1228e+03  0.000e+00
       1644      0.053    19.5883  86.239547     8.5360     0.3077     8.3591 1.1846e+03  0.000e+00
       1645      0.042    19.5898  86.239547     0.5820     0.1629     8.3631 1.2322e+03  0.000e+00
       1646      0.024    19.5896  86.239547     0.3880     0.1991     8.3712 1.2918e+03  0.000e+00
       1647      0.027    19.5857  86.239548     0.6305     0.3620     8.3791 1.3460e+03  0.000e+00
       1648      0.041    19.5825  86.299026     0.7760     0.2896     8.3941 1.2322e+03  0.000e+00
       1649      0.053    19.5826  86.239549     0.7275     0.2896     8.4015 1.2071e+03  0.000e+00
       1650      0.053    19.5833  86.239549     0.9700     0.1991     8.4069 1.4231e+03  0.000e+00
       1651      0.048    19.5845  86.239548     0.5820     0.1991     8.4038 9.5121e+02  0.000e+00
       1652      0.046    19.5856  86.209810     0.8245     0.2172     8.3988 1.3436e+03  0.000e+00
       1653      0.053    19.5861  86.239548     0.8730     0.2534     8.3939 1.1516e+03  0.000e+00
       1654      0.056    19.5859  86.239548     0.7275     0.1991     8.3918 1.1710e+03  0.000e+00
       1655      0.050    19.5848  86.299025     0.8730     0.2172     8.3917 9.6399e+02  0.000e+00
       1656      0.043    19.5845  86.239548     0.7275     0.2896     8.3899 8.2721e+02  0.000e+00
       1657      0.033    19.5856  86.239548     0.4850     0.1267     8.3925 1.3314e+03  0.000e+00
       1658      0.032    19.5861  86.299024     0.7760     0.2353     8.3912 1.4336e+03  0.000e+00
       1659      0.041    19.5848  86.239548     0.5820     0.2534     8.3935 1.2169e+03  0.000e+00
       1660      0.055    19.5839  86.299025     0.7760     0.2896     8.3936 7.9529e+02  0.000e+00
       1661      0.064    19.5853  86.358502     0.9215     0.3439     8.3887 1.3795e+03  0.000e+00
       1662      0.062    19.5875  86.239548     0.9700     0.1810     8.3866 8.9244e+02  0.000e+00
       1663      0.050    19.5861  86.299025     0.6790     0.2172     8.3886 1.4176e+03  0.000e+00
       1664      0.039    19.5839  86.239549     0.8730     0.1991     8.3896 1.1546e+03  0.000e+00
       1665      0.033    19.5840  86.299025     0.8245     0.2353     8.3923 1.3265e+03  0.000e+00
       1666      0.043    19.5843  86.239548     1.0185     0.2896     8.3992 1.3361e+03  0.000e+00
       1667      0.065    19.5835  86.180072     0.9700     0.2534     8.3996 1.1021e+03  0.000e+00
       1668      0.075    19.5839  86.299025     0.8245     0.2172     8.4017 1.2884e+03  0.000e+00
       1669      0.069    19.5856  86.299025     1.0185     0.3620     8.3918 1.2558e+03  0.000e+00
       1670      0.048    19.5852  86.239548     0.3880     0.2534     8.3831 1.0514e+03  0.000e+00
       1671      0.041    19.5844  86.299025     0.3395     0.0724     8.3719 1.0708e+03  0.000e+00
       1672      0.032    19.5837  86.239549    -0.9215    -0.2172     8.3617 1.5313e+03  0.000e+00
       1673     -0.060    19.5825  86.239548     0.7275    -0.0362     8.3494 1.7525e+03  0.000e+00
       1674     -0.225    19.5772  86.180072     0.7275    -0.0362     8.3471 3.3090e+03  0.000e+00
       1675     -0.364    19.5723  86.180072    12.9980    -0.0724     8.3436 3.2485e+03  0.000e+00
       1676     -0.412    19.5692  86.239549     9.4090     0.9593     8.3311 3.3300e+03  0.000e+00
       1677     -0.457    19.5731  86.299024    12.1250     8.3984     8.3307 2.0229e+03  0.000e+00
       1678     -0.532    19.5809  86.061116     1.1155    -3.0951     8.3218 2.8221e+03  0.000e+00
       1679     -0.617    19.5861  86.061114     9.2150     0.2353     8.3054 2.1894e+03  0.000e+00
       1680     -0.642    19.5867  86.239542   -11.3490    -0.9050     8.2513 1.5296e+03  0.000e+00
       1681     -0.641    19.5765  86.447714     0.0000     0.0362     8.1599 9.2924e+02  0.000e+00
       1682     -0.639    19.5618  86.507195     0.0000     0.0362     7.9994 8.8199e+02  0.000e+00
       1683     -0.638    19.5482  86.507199     0.0000     0.0362     7.8201 6.9968e+02  0.000e+00
       1684     -0.639    19.5371  86.477464     0.0000     0.0362     7.6402 7.9263e+02  0.000e+00
       1685     -0.638    19.5294  86.299035     0.0000     0.0362     7.4845 2.0487e+03  0.000e+00
       1686     -0.636    19.5253  86.239559     0.0000     0.0362     7.3686 2.2788e+03  0.000e+00
       1687     -0.638    19.5229  86.239560     0.0000     0.0362     7.2791 3.0366e+03  0.000e+00
       1688     -0.639    19.5185  86.180085     0.0000     0.0362     7.1945 3.3777e+03  0.000e+00
       1689     -0.639    19.5072  86.388256     0.0000     0.0362     7.1346 3.3476e+03  0.000e+00
       1690     -0.637    19.4881  86.507216     0.0000     0.0362     7.1326 3.1215e+03  0.000e+00
       1691     -0.637    19.4795  86.566696     0.0000     0.0362     7.1964 2.8964e+03  0.000e+00
       1692     -0.637    19.4767  86.447742     0.0000     0.0362     7.2854 1.7374e+03  0.000e+00
       1693     -0.634    19.4745  86.447743     0.0000     0.0362     7.4038 8.0484e+02  0.000e+00
       1694     -0.634    19.4703  86.447744     0.0000     0.0362     7.6789 7.6648e+02  0.000e+00
       1695     -0.636    19.4660  86.388268     0.0000     0.0362     8.1017 7.3871e+02  0.000e+00
       1696     -0.637    19.4610  86.447747     0.0000     0.0362     8.5638 7.7856e+02  0.000e+00
       1697     -0.639    19.4561  46.311799     1.9400     0.0362     8.9697 1.7390e+03  0.000e+00
       1698     -0.638    19.4492  46.667940     1.9885    -1.0136     9.2763 6.5575e+02  0.000e+00
       1699     -0.638    19.4394  29.639814     1.1640    -0.9231     9.4770 7.0152e+02  0.000e+00
       1700     -0.639    19.4270  26.230032     5.5290     5.5748     9.5690 7.1559e+02  0.000e+00
       1701     -0.640    19.4174  22.583703     1.5520     2.5340     9.5562 2.0883e+03  0.000e+00
       1702     -0.638    19.4123  15.056030     0.7275     0.1810     9.4415 3.1024e+03  0.000e+00
       1703     -0.639    19.4079  10.700784    -1.8430     0.0000     9.2882 2.9774e+03  0.000e+00
       1704     -0.639    19.4030   8.716062     1.4065     0.2896     9.1472 3.2945e+03  0.000e+00
       1705     -0.637    19.3975   8.123646    -0.1455    -0.4706     9.0341 3.3142e+03  0.000e+00
       1706     -0.635    19.3907   7.857065     0.5820    -0.1086     8.9521 3.3729e+03  0.000e+00
       1707     -0.636    19.3839   7.975546     0.6305     0.1267     8.8875 3.3664e+03  0.000e+00
       1708     -0.634    19.3768   9.456607     0.4365     0.0362     8.8499 3.3376e+03  0.000e+00
